#Lambda        Dielectric Constant          Refractive Index
# [nm]        [Real]        [Imag]        [Real]        [Imag]
   10.0      0.900010      0.008899      0.948700      0.004690
   15.0      0.722304      0.102240      0.852000      0.060000
   20.0      0.714736      0.316590      0.865000      0.183000
   25.0      0.795200      0.375150      0.915000      0.205000
   30.0      0.664608      0.325144      0.838000      0.194000
   35.0      0.437017      0.456144      0.731000      0.312000
   40.0      0.337799      0.651480      0.732000      0.445000
   45.0      0.232521      0.827680      0.739000      0.560000
   50.0      0.082895      0.985272      0.732000      0.673000
   55.0      0.014445      1.287972      0.807000      0.798000
   60.0     -0.121739      1.648500      0.875000      0.942000
   65.0      0.248031      1.899040      1.040000      0.913000
   70.0      0.507056      1.753920      1.080000      0.812000
   75.0      0.611196      1.796480      1.120000      0.802000
   80.0      0.725696      1.876680      1.170000      0.802000
   85.0      0.824100      1.936000      1.210000      0.800000
   90.0      0.911919      1.961680      1.240000      0.791000
   95.0      1.007616      1.976120      1.270000      0.778000
  100.0      1.042875      1.917700      1.270000      0.755000
  105.0      1.054700      1.839600      1.260000      0.730000
  110.0      1.037751      1.753360      1.240000      0.707000
  115.0      1.023276      1.664080      1.220000      0.682000
  120.0      0.963375      1.545800      1.180000      0.655000
  125.0      0.825056      1.416360      1.110000      0.638000
  130.0      0.653856      1.314280      1.030000      0.638000
  135.0      0.452584      1.286550      0.953000      0.675000
  140.0      0.211900      1.320000      0.880000      0.750000
  145.0     -0.038249      1.382520      0.820000      0.843000
  150.0     -0.296844      1.440080      0.766000      0.940000
  155.0     -0.542500      1.483200      0.720000      1.030000
  160.0     -0.776919      1.547840      0.691000      1.120000
  165.0     -1.024639      1.661640      0.681000      1.220000
  170.0     -1.231671      1.760200      0.677000      1.300000
  175.0     -1.448775      1.863000      0.675000      1.380000
  180.0     -1.650916      1.948800      0.672000      1.450000
  185.0     -1.828516      2.029440      0.672000      1.510000
  190.0     -2.014659      2.106940      0.671000      1.570000
  195.0     -2.205316      2.190720      0.672000      1.630000
  200.0     -2.400475      2.281500      0.675000      1.690000
  205.0     -2.980450      2.780045      0.739305      1.876306
  210.0     -3.322189      3.104632      0.783261      1.985450
  215.0     -3.397320      3.175935      0.791458      2.005553
  220.0     -3.550184      3.268276      0.798450      2.046183
  225.0     -3.746899      3.359901      0.801881      2.095360
  230.0     -3.956809      3.428605      0.799623      2.143872
  235.0     -4.181077      3.480769      0.793484      2.193377
  240.0     -4.433353      3.549131      0.789195      2.248530
  245.0     -4.703137      3.643203      0.789326      2.307723
  250.0     -4.940450      3.728151      0.790178      2.359061
  255.0     -5.213069      3.815665      0.789731      2.415847
  260.0     -5.520436      3.921075      0.790776      2.479142
  265.0     -5.807105      3.994827      0.787900      2.535283
  270.0     -6.188618      4.067516      0.780046      2.607136
  275.0     -6.525899      4.219642      0.789080      2.673682
  280.0     -6.855465      4.354234      0.795666      2.736521
  285.0     -7.199637      4.567099      0.814266      2.804042
  290.0     -7.555522      4.798951      0.835274      2.872846
  295.0     -7.922920      4.935079      0.840030      2.937445
  300.0     -8.301981      5.032537      0.838553      3.000826
  305.0     -8.650341      5.173051      0.845168      3.060227
  310.0     -8.994800      5.366400      0.860000      3.120000
  315.0     -9.407643      5.564990      0.872599      3.188842
  320.0     -9.834182      5.776555      0.886287      3.258807
  325.0    -10.229221      6.013198      0.904571      3.323773
  330.0    -10.602474      6.273670      0.926562      3.385446
  335.0    -10.991703      6.549412      0.949554      3.448676
  340.0    -11.431908      6.831534      0.971021      3.517726
  345.0    -11.890680      7.124365      0.992709      3.588343
  350.0    -12.330240      7.435640      1.016972      3.655766
  355.0    -12.748032      7.772784      1.044693      3.720135
  360.0    -13.148237      8.142593      1.076385      3.782441
  365.0    -13.536573      8.550436      1.112275      3.843660
  370.0    -13.915145      8.996223      1.152097      3.904148
  375.0    -14.273180      9.462334      1.194071      3.962191
  380.0    -14.599541      9.930254      1.236361      4.016005
  385.0    -14.897304     10.398373      1.278705      4.066021
  390.0    -15.174503     10.871408      1.321438      4.113458
  395.0    -15.429686     11.352660      1.365014      4.158442
  400.0    -15.651900     11.844000      1.410000      4.200000
  405.0    -15.833319     12.342650      1.456392      4.237317
  410.0    -15.980282     12.827478      1.501878      4.270393
  415.0    -16.102644     13.273054      1.543601      4.299441
  420.0    -16.208962     13.670581      1.580445      4.325093
  425.0    -16.305817     14.036587      1.613950      4.348620
  430.0    -16.399474     14.389236      1.645830      4.371313
  435.0    -16.492802     14.735354      1.676757      4.393705
  440.0    -16.585269     15.070430      1.706353      4.415572
  445.0    -16.676200     15.389460      1.734196      4.436656
  450.0    -16.764916     15.687442      1.759865      4.456700
  455.0    -16.850739     15.959372      1.782936      4.475446
  460.0    -16.933002     16.200258      1.802989      4.492636
  465.0    -17.014673     16.409175      1.819852      4.508511
  470.0    -17.107799     16.595371      1.833979      4.524542
  475.0    -17.225825     16.769650      1.845921      4.542393
  480.0    -17.381324     16.942273      1.856208      4.563625
  485.0    -17.574820     17.115914      1.865104      4.588364
  490.0    -17.798036     17.287715      1.872677      4.615696
  495.0    -18.042495     17.454688      1.878992      4.644680
  500.0    -18.300505     17.614746      1.884164      4.674484
  505.0    -18.569812     17.772039      1.888667      4.705023
  510.0    -18.850465     17.933361      1.893124      4.736530
  515.0    -19.142523     18.105513      1.898163      4.769240
  520.0    -19.445796     18.294826      1.904371      4.803349
  525.0    -19.757338     18.502395      1.911935      4.838621
  530.0    -20.072487     18.726059      1.920791      4.874555
  535.0    -20.386557     18.963605      1.930870      4.910645
  540.0    -20.694868     19.212819      1.942104      4.946386
  545.0    -20.995243     19.470941      1.954304      4.981478
  550.0    -21.291408     19.733915      1.967002      5.016108
  555.0    -21.587938     19.997502      1.979688      5.050532
  560.0    -21.889411     20.257459      1.991851      5.085005
  565.0    -22.200372     20.509577      2.002987      5.119782
  570.0    -22.522675     20.752463      2.012914      5.154981
  575.0    -22.853349     20.989768      2.022036      5.190473
  580.0    -23.188924     21.225665      2.030816      5.226105
  585.0    -23.525929     21.464327      2.039717      5.261724
  590.0    -23.860895     21.709927      2.049202      5.297176
  595.0    -24.191249     21.965909      2.059645      5.332356
  600.0    -24.518991     22.231996      2.070958      5.367407
  605.0    -24.847572     22.506732      2.082908      5.402550
  610.0    -25.180444     22.788661      2.095261      5.438006
  615.0    -25.521059     23.076326      2.107786      5.473997
  620.0    -25.872868     23.368271      2.120247      5.510744
  625.0    -26.238019     23.663301      2.132474      5.548375
  630.0    -26.613745     23.961200      2.144529      5.586674
  635.0    -26.996124     24.261988      2.156526      5.625341
  640.0    -27.381233     24.565683      2.168582      5.664077
  645.0    -27.765149     24.872301      2.180813      5.702583
  650.0    -28.143948     25.181860      2.193335      5.740560
  655.0    -28.513847     25.494381      2.206260      5.777720
  660.0    -28.874562     25.809928      2.219602      5.814037
  665.0    -29.229498     26.128609      2.233274      5.849766
  670.0    -29.582237     26.450539      2.247183      5.885172
  675.0    -29.936359     26.775830      2.261235      5.920523
  680.0    -30.295446     27.104595      2.275338      5.956086
  685.0    -30.663080     27.436945      2.289399      5.992126
  690.0    -31.042823     27.772997      2.303325      6.028909
  695.0    -31.435987     28.113148      2.317104      6.066547
  700.0    -31.839377     28.458360      2.330877      6.104840
  705.0    -32.249266     28.809661      2.344806      6.143552
  710.0    -32.661927     29.168080      2.359054      6.182448
  715.0    -33.073632     29.534647      2.373782      6.221293
  720.0    -33.480654     29.910390      2.389152      6.259851
  725.0    -33.879264     30.296338      2.405325      6.297887
  730.0    -34.265739     30.693519      2.422463      6.335165
  735.0    -34.637804     31.102176      2.440639      6.371532
  740.0    -34.997026     31.520479      2.459687      6.407055
  745.0    -35.345599     31.946258      2.479404      6.441835
  750.0    -35.685716     32.377343      2.499588      6.475976
  755.0    -36.019572     32.811566      2.520034      6.509578
  760.0    -36.349360     33.246755      2.540540      6.542745
  765.0    -36.677273     33.680743      2.560902      6.575577
  770.0    -37.005507     34.111359      2.580917      6.608178
  775.0    -37.336254     34.536433      2.600383      6.640649
  780.0    -37.671161     34.954444      2.619152      6.673070
  785.0    -38.009814     35.366305      2.637294      6.705440
  790.0    -38.351311     35.773507      2.654930      6.737739
  795.0    -38.694752     36.177539      2.672181      6.769944
  800.0    -39.039237     36.579889      2.689166      6.802036
  805.0    -39.383865     36.982046      2.706006      6.833994
  810.0    -39.727735     37.385500      2.722821      6.865796
  815.0    -40.069947     37.791739      2.739732      6.897422
  820.0    -40.409601     38.202253      2.756858      6.928851
  825.0    -40.745795     38.618531      2.774321      6.960062
  830.0    -41.077662     39.041932      2.792232      6.991034
  835.0    -41.404689     39.472391      2.810600      7.021737
  840.0    -41.726582     39.908951      2.829372      7.052141
  845.0    -42.043054     40.350643      2.848495      7.082212
  850.0    -42.353815     40.796499      2.867914      7.111918
  855.0    -42.658578     41.245550      2.887576      7.141226
  860.0    -42.957053     41.696826      2.907426      7.170103
  865.0    -43.248952     42.149359      2.927410      7.198518
  870.0    -43.533985     42.602179      2.947475      7.226436
  875.0    -43.811865     43.054319      2.967566      7.253827
  880.0    -44.082302     43.504808      2.987629      7.280657
  885.0    -44.345009     43.952678      3.007610      7.306893
  890.0    -44.599849     44.397073      3.027460      7.332514
  895.0    -44.847574     44.837792      3.047151      7.357561
  900.0    -45.089251     45.274866      3.066664      7.382095
  905.0    -45.325947     45.708325      3.085981      7.406179
  910.0    -45.558730     46.138202      3.105083      7.429875
  915.0    -45.788666     46.564527      3.123950      7.453247
  920.0    -46.016824     46.987332      3.142565      7.476355
  925.0    -46.244269     47.406648      3.160907      7.499263
  930.0    -46.472070     47.822507      3.178960      7.522034
  935.0    -46.701293     48.234940      3.196703      7.544729
  940.0    -46.933007     48.643977      3.214117      7.567411
  945.0    -47.168278     49.049652      3.231185      7.590143
  950.0    -47.408173     49.451994      3.247887      7.612987
  955.0    -47.653747     49.851036      3.264205      7.636004
  960.0    -47.904626     50.246946      3.280159      7.659182
  965.0    -48.157741     50.640145      3.295845      7.682366
  970.0    -48.409722     51.031081      3.311366      7.705385
  975.0    -48.657199     51.420206      3.326826      7.728069
  980.0    -48.896803     51.807968      3.342328      7.750248
  985.0    -49.125162     52.194817      3.357976      7.771751
  990.0    -49.338909     52.581202      3.373872      7.792408
  995.0    -49.534947     52.967482      3.390110      7.812061
 1000.0    -49.713991     53.352758      3.406628      7.830728
 1005.0    -49.879531     53.735214      3.423251      7.848559
 1010.0    -50.035124     54.113011      3.439802      7.865703
 1015.0    -50.184327     54.484312      3.456104      7.882312
 1020.0    -50.330694     54.847279      3.471981      7.898536
 1025.0    -50.477783     55.200073      3.487256      7.914526
 1030.0    -50.629148     55.540858      3.501751      7.930433
 1035.0    -50.788302     55.867831      3.515292      7.946406
 1040.0    -50.957010     56.180584      3.527821      7.962531
 1045.0    -51.134770     56.480517      3.539427      7.978811
 1050.0    -51.320930     56.769153      3.550208      7.995244
 1055.0    -51.514837     57.048014      3.560265      8.011829
 1060.0    -51.715839     57.318622      3.569696      8.028562
 1065.0    -51.923283     57.582498      3.578600      8.045441
 1070.0    -52.136516     57.841166      3.587077      8.062466
 1075.0    -52.354885     58.096148      3.595227      8.079632
 1080.0    -52.577737     58.348946      3.603146      8.096939
 1085.0    -52.804387     58.600340      3.610895      8.114367
 1090.0    -53.034110     58.850169      3.618481      8.131877
 1095.0    -53.266178     59.098208      3.625909      8.149427
 1100.0    -53.499864     59.344233      3.633183      8.166977
 1105.0    -53.734440     59.588019      3.640308      8.184486
 1110.0    -53.969178     59.829343      3.647288      8.201913
 1115.0    -54.203350     60.067979      3.654129      8.219217
 1120.0    -54.436229     60.303704      3.660833      8.236357
 1125.0    -54.667086     60.536293      3.667406      8.253292
 1130.0    -54.895280     60.765510      3.673851      8.269986
 1135.0    -55.121450     60.990951      3.680134      8.286460
 1140.0    -55.347220     61.212079      3.686197      8.302785
 1145.0    -55.574243     61.428357      3.691982      8.319030
 1150.0    -55.804168     61.639246      3.697427      8.335265
 1155.0    -56.038647     61.844206      3.702474      8.351562
 1160.0    -56.279329     62.042700      3.707063      8.367989
 1165.0    -56.527867     62.234188      3.711136      8.384618
 1170.0    -56.785910     62.418133      3.714631      8.401518
 1175.0    -57.055110     62.593994      3.717491      8.418760
 1180.0    -57.337117     62.761234      3.719656      8.436414
 1185.0    -57.633296     62.919448      3.721078      8.454538
 1190.0    -57.942902     63.069227      3.721804      8.473111
 1195.0    -58.264246     63.211607      3.721920      8.492069
 1200.0    -58.595631     63.347627      3.721515      8.511352
 1205.0    -58.935363     63.478324      3.720676      8.530900
 1210.0    -59.281746     63.604737      3.719490      8.550651
 1215.0    -59.633086     63.727905      3.718045      8.570544
 1220.0    -59.987687     63.848865      3.716429      8.590517
 1225.0    -60.343854     63.968657      3.714729      8.610511
 1230.0    -60.699892     64.088317      3.713032      8.630463
 1235.0    -61.054105     64.208886      3.711427      8.650313
 1240.0    -61.404800     64.331400      3.710000      8.670000
 1245.0    -61.750933     64.456627      3.708813      8.689488
 1250.0    -62.094077     64.584248      3.707823      8.708845
 1255.0    -62.436455     64.713673      3.706960      8.728166
 1260.0    -62.780291     64.844311      3.706154      8.747544
 1265.0    -63.127811     64.975571      3.705337      8.767073
 1270.0    -63.481239     65.106862      3.704437      8.786846
 1275.0    -63.842799     65.237596      3.703386      8.806959
 1280.0    -64.214715     65.367180      3.702113      8.827503
 1285.0    -64.599213     65.495025      3.700550      8.848574
 1290.0    -64.998515     65.620540      3.698627      8.870266
 1295.0    -65.414848     65.743134      3.696274      8.892671
 1300.0    -65.850435     65.862218      3.693422      8.915885
 1305.0    -66.307500     65.977200      3.690000      8.940000
 1310.0    -66.787522     66.087795      3.685968      8.965081
 1315.0    -67.288993     66.194939      3.681399      8.991070
 1320.0    -67.809657     66.299872      3.676393      9.017880
 1325.0    -68.347262     66.403833      3.671053      9.045424
 1330.0    -68.899552     66.508064      3.665479      9.073616
 1335.0    -69.464273     66.613805      3.659772      9.102366
 1340.0    -70.039170     66.722295      3.654034      9.131589
 1345.0    -70.621989     66.834776      3.648367      9.161198
 1350.0    -71.210477     66.952488      3.642871      9.191104
 1355.0    -71.802377     67.076670      3.637647      9.221220
 1360.0    -72.395436     67.208564      3.632797      9.251461
 1365.0    -72.987400     67.349409      3.628423      9.281737
 1370.0    -73.576013     67.500446      3.624625      9.311963
 1375.0    -74.159022     67.662915      3.621505      9.342050
 1380.0    -74.734203     67.838029      3.619162      9.371913
 1385.0    -75.300490     68.025919      3.617621      9.401503
 1390.0    -75.858328     68.225313      3.616815      9.430822
 1395.0    -76.408261     68.434844      3.616668      9.459873
 1400.0    -76.950834     68.653146      3.617103      9.488662
 1405.0    -77.486591     68.878853      3.618045      9.517191
 1410.0    -78.016077     69.110597      3.619419      9.545466
 1415.0    -78.539836     69.347013      3.621149      9.573492
 1420.0    -79.058413     69.586734      3.623160      9.601271
 1425.0    -79.572352     69.828394      3.625375      9.628809
 1430.0    -80.082197     70.070626      3.627720      9.656110
 1435.0    -80.588494     70.312064      3.630119      9.683178
 1440.0    -81.091787     70.551342      3.632497      9.710017
 1445.0    -81.592620     70.787093      3.634777      9.736633
 1450.0    -82.091537     71.017950      3.636884      9.763028
 1455.0    -82.589084     71.242547      3.638743      9.789208
 1460.0    -83.085805     71.459522      3.640278      9.815177
 1465.0    -83.582359     71.668149      3.641442      9.840953
 1470.0    -84.079662     71.869135      3.642256      9.866584
 1475.0    -84.578663     72.063375      3.642746      9.892124
 1480.0    -85.080312     72.251769      3.642940      9.917624
 1485.0    -85.585558     72.435214      3.642865      9.943138
 1490.0    -86.095350     72.614606      3.642549      9.968717
 1495.0    -86.610639     72.790844      3.642020      9.994416
 1500.0    -87.132373     72.964826      3.641304     10.020286
 1505.0    -87.661502     73.137449      3.640431     10.046380
 1510.0    -88.198975     73.309610      3.639427     10.072751
 1515.0    -88.745742     73.482207      3.638320     10.099451
 1520.0    -89.302753     73.656138      3.637137     10.126533
 1525.0    -89.870957     73.832301      3.635907     10.154050
 1530.0    -90.451303     74.011592      3.634656     10.182055
 1535.0    -91.044740     74.194910      3.633412     10.210599
 1540.0    -91.652220     74.383153      3.632203     10.239737
 1545.0    -92.274690     74.577217      3.631057     10.269519
 1550.0    -92.913100     74.778000      3.630000     10.300000
 1555.0    -93.568014     74.986165      3.629056     10.331212
 1560.0    -94.238447     75.201436      3.628226     10.363109
 1565.0    -94.923031     75.423300      3.627508     10.395627
 1570.0    -95.620396     75.651246      3.626899     10.428701
 1575.0    -96.329171     75.884761      3.626396     10.462266
 1580.0    -97.047988     76.123334      3.625995     10.496256
 1585.0    -97.775477     76.366454      3.625695     10.530606
 1590.0    -98.510267     76.613608      3.625491     10.565252
 1595.0    -99.250989     76.864284      3.625381     10.600129
 1600.0    -99.996273     77.117971      3.625362     10.635171
 1605.0   -100.744750     77.374157      3.625432     10.670313
 1610.0   -101.495050     77.632330      3.625586     10.705491
 1615.0   -102.245804     77.891979      3.625823     10.740640
 1620.0   -102.995640     78.152591      3.626139     10.775693
 1625.0   -103.743191     78.413655      3.626531     10.810587
 1630.0   -104.487086     78.674659      3.626997     10.845257
 1635.0   -105.225954     78.935091      3.627533     10.879637
 1640.0   -105.958428     79.194439      3.628136     10.913662
 1645.0   -106.683137     79.452192      3.628804     10.947267
 1650.0   -107.398710     79.707837      3.629534     10.980387
 1655.0   -108.103804     79.960873      3.630322     11.012959
 1660.0   -108.798047     80.211174      3.631169     11.044964
 1665.0   -109.482330     80.459104      3.632075     11.076442
 1670.0   -110.157628     80.705058      3.633045     11.107436
 1675.0   -110.824917     80.949432      3.634080     11.137992
 1680.0   -111.485174     81.192624      3.635183     11.168153
 1685.0   -112.139374     81.435028      3.636355     11.197963
 1690.0   -112.788493     81.677042      3.637601     11.227467
 1695.0   -113.433507     81.919060      3.638922     11.256709
 1700.0   -114.075391     82.161480      3.640320     11.285732
 1705.0   -114.715122     82.404698      3.641799     11.314580
 1710.0   -115.353675     82.649108      3.643360     11.343299
 1715.0   -115.992026     82.895109      3.645006     11.371932
 1720.0   -116.631150     83.143095      3.646740     11.400523
 1725.0   -117.272025     83.393463      3.648564     11.429116
 1730.0   -117.915625     83.646610      3.650480     11.457755
 1735.0   -118.562926     83.902930      3.652491     11.486485
 1740.0   -119.214905     84.162821      3.654600     11.515349
 1745.0   -119.872537     84.426678      3.656809     11.544392
 1750.0   -120.536797     84.694898      3.659120     11.573657
 1755.0   -121.208662     84.967877      3.661536     11.603190
 1760.0   -121.889108     85.246010      3.664059     11.633033
 1765.0   -122.579110     85.529694      3.666692     11.663231
 1770.0   -123.279643     85.819325      3.669437     11.693829
 1775.0   -123.991539     86.115234      3.672297     11.724863
 1780.0   -124.714546     86.417267      3.675267     11.756323
 1785.0   -125.447928     86.725053      3.678341     11.788178
 1790.0   -126.190950     87.038221      3.681515     11.820395
 1795.0   -126.942872     87.356398      3.684782     11.852942
 1800.0   -127.702959     87.679213      3.688136     11.885786
 1805.0   -128.470472     88.006294      3.691572     11.918897
 1810.0   -129.244674     88.337269      3.695084     11.952241
 1815.0   -130.024828     88.671767      3.698665     11.985786
 1820.0   -130.810197     89.009415      3.702311     12.019501
 1825.0   -131.600043     89.349843      3.706015     12.053354
 1830.0   -132.393629     89.692677      3.709771     12.087311
 1835.0   -133.190218     90.037547      3.713575     12.121341
 1840.0   -133.989072     90.384081      3.717419     12.155412
 1845.0   -134.789454     90.731906      3.721298     12.189492
 1850.0   -135.590626     91.080651      3.725207     12.223549
 1855.0   -136.391852     91.429945      3.729139     12.257550
 1860.0   -137.192394     91.779415      3.733088     12.291463
 1865.0   -137.991515     92.128689      3.737050     12.325257
 1870.0   -138.788477     92.477397      3.741017     12.358899
 1875.0   -139.582543     92.825165      3.744985     12.392357
 1880.0   -140.372976     93.171623      3.748947     12.425598
 1885.0   -141.159037     93.516399      3.752898     12.458592
 1890.0   -141.939991     93.859120      3.756832     12.491305
 1895.0   -142.715100     94.199415      3.760743     12.523706
 1900.0   -143.483626     94.536912      3.764625     12.555762
 1905.0   -144.244832     94.871240      3.768472     12.587441
 1910.0   -144.998028     95.202045      3.772279     12.618713
 1915.0   -145.743217     95.529257      3.776044     12.649578
 1920.0   -146.480941     95.853025      3.779766     12.680056
 1925.0   -147.211755     96.173500      3.783445     12.710169
 1930.0   -147.936212     96.490836      3.787082     12.739939
 1935.0   -148.654867     96.805186      3.790676     12.769388
 1940.0   -149.368274     97.116704      3.794228     12.798538
 1945.0   -150.076988     97.425542      3.797738     12.827411
 1950.0   -150.781563     97.731853      3.801206     12.856029
 1955.0   -151.482554     98.035791      3.804632     12.884414
 1960.0   -152.180514     98.337508      3.808015     12.912588
 1965.0   -152.875999     98.637158      3.811357     12.940571
 1970.0   -153.569562     98.934893      3.814657     12.968388
 1975.0   -154.261759     99.230868      3.817915     12.996059
 1980.0   -154.953142     99.525234      3.821131     13.023606
 1985.0   -155.644268     99.818146      3.824306     13.051051
 1990.0   -156.335690    100.109755      3.827439     13.078416
 1995.0   -157.027962    100.400216      3.830531     13.105724
 2000.0   -157.721639    100.689681      3.833581     13.132995
 2005.0   -158.417276    100.978304      3.836590     13.160252
 2010.0   -159.115426    101.266237      3.839558     13.187517
 2015.0   -159.816645    101.553634      3.842484     13.214811
 2020.0   -160.521486    101.840647      3.845370     13.242158
 2025.0   -161.230503    102.127430      3.848214     13.269577
 2030.0   -161.944252    102.414136      3.851018     13.297092
 2035.0   -162.663287    102.700918      3.853780     13.324725
 2040.0   -163.388162    102.987928      3.856502     13.352496
 2045.0   -164.119431    103.275321      3.859183     13.380429
 2050.0   -164.857649    103.563250      3.861823     13.408544
 2055.0   -165.603370    103.851866      3.864423     13.436865
 2060.0   -166.357149    104.141324      3.866982     13.465413
 2065.0   -167.119540    104.431777      3.869501     13.494209
 2070.0   -167.891026    104.723368      3.871980     13.523273
 2075.0   -168.671572    105.016178      3.874422     13.552605
 2080.0   -169.460905    105.310256      3.876830     13.582195
 2085.0   -170.258756    105.605653      3.879209     13.612033
 2090.0   -171.064852    105.902418      3.881563     13.642110
 2095.0   -171.878922    106.200603      3.883895     13.672417
 2100.0   -172.700693    106.500258      3.886210     13.702943
 2105.0   -173.529896    106.801432      3.888511     13.733680
 2110.0   -174.366257    107.104176      3.890802     13.764618
 2115.0   -175.209506    107.408540      3.893088     13.795747
 2120.0   -176.059370    107.714574      3.895372     13.827059
 2125.0   -176.915579    108.022328      3.897658     13.858542
 2130.0   -177.777861    108.331853      3.899951     13.890189
 2135.0   -178.645943    108.643199      3.902253     13.921989
 2140.0   -179.519556    108.956416      3.904570     13.953933
 2145.0   -180.398426    109.271554      3.906904     13.986012
 2150.0   -181.282283    109.588663      3.909260     14.018215
 2155.0   -182.170854    109.907794      3.911642     14.050534
 2160.0   -183.063869    110.228997      3.914053     14.082959
 2165.0   -183.961056    110.552322      3.916499     14.115480
 2170.0   -184.862143    110.877819      3.918981     14.148089
 2175.0   -185.766858    111.205539      3.921506     14.180774
 2180.0   -186.674931    111.535531      3.924075     14.213528
 2185.0   -187.586089    111.867846      3.926695     14.246340
 2190.0   -188.500061    112.202534      3.929367     14.279201
 2195.0   -189.416575    112.539645      3.932097     14.312101
 2200.0   -190.335360    112.879230      3.934888     14.345031
 2205.0   -191.256144    113.221338      3.937744     14.377982
 2210.0   -192.178656    113.566020      3.940669     14.410943
 2215.0   -193.102624    113.913326      3.943667     14.443906
 2220.0   -194.027776    114.263307      3.946743     14.476861
 2225.0   -194.953842    114.616012      3.949899     14.509798
 2230.0   -195.880548    114.971491      3.953139     14.542708
 2235.0   -196.807625    115.329796      3.956469     14.575582
 2240.0   -197.734800    115.690975      3.959891     14.608409
 2245.0   -198.661801    116.055080      3.963410     14.641181
 2250.0   -199.588358    116.422160      3.967029     14.673888
 2255.0   -200.514198    116.792265      3.970753     14.706520
 2260.0   -201.439135    117.165407      3.974584     14.739071
 2265.0   -202.363165    117.541507      3.978518     14.771540
 2270.0   -203.286313    117.920475      3.982552     14.803929
 2275.0   -204.208602    118.302222      3.986684     14.836238
 2280.0   -205.130055    118.686659      3.990910     14.868467
 2285.0   -206.050696    119.073695      3.995227     14.900617
 2290.0   -206.970547    119.463241      3.999631     14.932689
 2295.0   -207.889632    119.855207      4.004120     14.964684
 2300.0   -208.807974    120.249504      4.008690     14.996602
 2305.0   -209.725597    120.646042      4.013338     15.028444
 2310.0   -210.642523    121.044731      4.018060     15.060210
 2315.0   -211.558776    121.445482      4.022854     15.091901
 2320.0   -212.474380    121.848205      4.027716     15.123518
 2325.0   -213.389357    122.252810      4.032643     15.155062
 2330.0   -214.303732    122.659207      4.037632     15.186532
 2335.0   -215.217526    123.067308      4.042680     15.217930
 2340.0   -216.130764    123.477022      4.047783     15.249257
 2345.0   -217.043468    123.888259      4.052937     15.280513
 2350.0   -217.955663    124.300931      4.058141     15.311699
 2355.0   -218.867371    124.714947      4.063391     15.342814
 2360.0   -219.778616    125.130218      4.068682     15.373861
 2365.0   -220.689420    125.546653      4.074013     15.404840
 2370.0   -221.599808    125.964164      4.079380     15.435751
 2375.0   -222.509802    126.382661      4.084779     15.466595
 2380.0   -223.419425    126.802054      4.090208     15.497372
 2385.0   -224.328702    127.222253      4.095664     15.528084
 2390.0   -225.237655    127.643169      4.101142     15.558731
 2395.0   -226.146308    128.064712      4.106640     15.589314
 2400.0   -227.054683    128.486792      4.112154     15.619832
 2405.0   -227.962805    128.909320      4.117682     15.650288
 2410.0   -228.870696    129.332206      4.123220     15.680681
 2415.0   -229.778380    129.755361      4.128765     15.711013
 2420.0   -230.685880    130.178694      4.134313     15.741283
 2425.0   -231.593219    130.602116      4.139862     15.771493
 2430.0   -232.500420    131.025538      4.145408     15.801643
 2435.0   -233.407508    131.448870      4.150947     15.831734
 2440.0   -234.314505    131.872021      4.156478     15.861767
 2445.0   -235.221434    132.294904      4.161996     15.891741
 2450.0   -236.128318    132.717427      4.167498     15.921659
 2455.0   -237.035182    133.139501      4.172982     15.951520
 2460.0   -237.942048    133.561036      4.178443     15.981325
 2465.0   -238.848939    133.981944      4.183878     16.011075
 2470.0   -239.755880    134.402133      4.189285     16.040770
 2475.0   -240.662892    134.821515      4.194660     16.070412
 2480.0   -241.570000    135.240000      4.200000     16.100000
 2485.0   -242.477234    135.657518      4.205302     16.129536
 2490.0   -243.384653    136.074077      4.210566     16.159021
 2495.0   -244.292323    136.489707      4.215793     16.188458
 2500.0   -245.200312    136.904436      4.220984     16.217847
 2505.0   -246.108685    137.318292      4.226138     16.247192
 2510.0   -247.017510    137.731304      4.231257     16.276494
 2515.0   -247.926852    138.143501      4.236340     16.305755
 2520.0   -248.836779    138.554911      4.241389     16.334977
 2525.0   -249.747356    138.965562      4.246404     16.364162
 2530.0   -250.658650    139.375484      4.251386     16.393311
 2535.0   -251.570728    139.784705      4.256335     16.422428
 2540.0   -252.483657    140.193253      4.261251     16.451513
 2545.0   -253.397502    140.601157      4.266136     16.480568
 2550.0   -254.312330    141.008446      4.270990     16.509597
 2555.0   -255.228208    141.415148      4.275813     16.538599
 2560.0   -256.145202    141.821292      4.280606     16.567579
 2565.0   -257.063378    142.226906      4.285370     16.596536
 2570.0   -257.982804    142.632019      4.290104     16.625474
 2575.0   -258.903546    143.036659      4.294810     16.654394
 2580.0   -259.825670    143.440855      4.299489     16.683298
 2585.0   -260.749242    143.844636      4.304140     16.712189
 2590.0   -261.674330    144.248030      4.308764     16.741067
 2595.0   -262.600999    144.651066      4.313362     16.769935
 2600.0   -263.529317    145.053772      4.317935     16.798795
 2605.0   -264.459349    145.456177      4.322483     16.827650
 2610.0   -265.391163    145.858309      4.327005     16.856499
 2615.0   -266.324824    146.260198      4.331504     16.885347
 2620.0   -267.260399    146.661871      4.335980     16.914194
 2625.0   -268.197955    147.063357      4.340433     16.943043
 2630.0   -269.137559    147.464684      4.344863     16.971895
 2635.0   -270.079276    147.865882      4.349272     17.000753
 2640.0   -271.023173    148.266979      4.353660     17.029618
 2645.0   -271.969317    148.668003      4.358026     17.058492
 2650.0   -272.917774    149.068984      4.362373     17.087378
 2655.0   -273.868611    149.469948      4.366701     17.116277
 2660.0   -274.821894    149.870926      4.371009     17.145191
 2665.0   -275.777690    150.271946      4.375299     17.174122
 2670.0   -276.736065    150.673036      4.379571     17.203072
 2675.0   -277.697086    151.074225      4.383826     17.232043
 2680.0   -278.660819    151.475541      4.388064     17.261036
 2685.0   -279.627330    151.877013      4.392285     17.290055
 2690.0   -280.596687    152.278670      4.396492     17.319100
 2695.0   -281.568956    152.680539      4.400683     17.348174
 2700.0   -282.544203    153.082651      4.404859     17.377278
 2705.0   -283.522494    153.485033      4.409022     17.406416
 2710.0   -284.503897    153.887713      4.413171     17.435587
 2715.0   -285.488478    154.290721      4.417307     17.464795
 2720.0   -286.476302    154.694085      4.421431     17.494041
 2725.0   -287.467438    155.097834      4.425543     17.523327
 2730.0   -288.461951    155.501995      4.429644     17.552656
 2735.0   -289.459907    155.906599      4.433734     17.582029
 2740.0   -290.461374    156.311672      4.437814     17.611448
 2745.0   -291.466417    156.717245      4.441885     17.640915
 2750.0   -292.475104    157.123344      4.445947     17.670431
 2755.0   -293.487500    157.530000      4.450000     17.700000
 2760.0   -294.503653    157.937238      4.454045     17.729622
 2765.0   -295.523529    158.345073      4.458083     17.759296
 2770.0   -296.547076    158.753518      4.462114     17.789022
 2775.0   -297.574241    159.162586      4.466139     17.818798
 2780.0   -298.604970    159.572290      4.470159     17.848622
 2785.0   -299.639213    159.982643      4.474173     17.878494
 2790.0   -300.676915    160.393658      4.478182     17.908411
 2795.0   -301.718023    160.805347      4.482187     17.938374
 2800.0   -302.762486    161.217724      4.486189     17.968380
 2805.0   -303.810250    161.630800      4.490187     17.998429
 2810.0   -304.861263    162.044590      4.494183     18.028518
 2815.0   -305.915471    162.459105      4.498177     18.058647
 2820.0   -306.972823    162.874359      4.502170     18.088815
 2825.0   -308.033264    163.290365      4.506161     18.119020
 2830.0   -309.096743    163.707135      4.510153     18.149260
 2835.0   -310.163207    164.124682      4.514144     18.179535
 2840.0   -311.232603    164.543020      4.518136     18.209844
 2845.0   -312.304877    164.962160      4.522130     18.240184
 2850.0   -313.379979    165.382116      4.526125     18.270556
 2855.0   -314.457853    165.802901      4.530122     18.300956
 2860.0   -315.538449    166.224528      4.534123     18.331385
 2865.0   -316.621712    166.647008      4.538126     18.361841
 2870.0   -317.707591    167.070356      4.542134     18.392322
 2875.0   -318.796032    167.494584      4.546146     18.422828
 2880.0   -319.886983    167.919705      4.550163     18.453357
 2885.0   -320.980391    168.345731      4.554186     18.483907
 2890.0   -322.076204    168.772676      4.558214     18.514478
 2895.0   -323.174367    169.200553      4.562250     18.545069
 2900.0   -324.274829    169.629374      4.566292     18.575677
 2905.0   -325.377538    170.059151      4.570342     18.606302
 2910.0   -326.482439    170.489899      4.574400     18.636942
 2915.0   -327.589480    170.921630      4.578468     18.667596
 2920.0   -328.698609    171.354356      4.582544     18.698263
 2925.0   -329.809773    171.788091      4.586630     18.728942
 2930.0   -330.922919    172.222847      4.590726     18.759631
 2935.0   -332.037995    172.658638      4.594834     18.790329
 2940.0   -333.154946    173.095475      4.598953     18.821034
 2945.0   -334.273722    173.533372      4.603084     18.851746
 2950.0   -335.394268    173.972343      4.607227     18.882463
 2955.0   -336.516532    174.412398      4.611383     18.913184
 2960.0   -337.640462    174.853552      4.615553     18.943907
 2965.0   -338.766005    175.295818      4.619737     18.974632
 2970.0   -339.893107    175.739207      4.623936     19.005357
 2975.0   -341.021717    176.183734      4.628150     19.036080
 2980.0   -342.151780    176.629410      4.632379     19.066801
 2985.0   -343.283246    177.076250      4.636625     19.097518
 2990.0   -344.416060    177.524264      4.640888     19.128230
 2995.0   -345.550170    177.973467      4.645168     19.158935
 3000.0   -346.685523    178.423871      4.649465     19.189633
 3050.0   -358.095824    182.996808      4.693544     19.495906
 3100.0   -369.572400    187.704000      4.740000     19.800000
 3150.0   -381.075359    192.553493      4.789198     20.100936
 3200.0   -392.616325    197.534119      4.840817     20.398936
 3250.0   -404.219802    202.629912      4.894367     20.694526
 3300.0   -415.910294    207.824900      4.949356     20.988230
 3350.0   -427.712303    213.103116      5.005292     21.280572
 3400.0   -439.650334    218.448590      5.061684     21.572077
 3450.0   -451.748889    223.845353      5.118040     21.863269
 3500.0   -464.032473    229.277437      5.173870     22.154673
 3550.0   -476.525566    234.728893      5.228682     22.446813
 3600.0   -489.243942    240.191889      5.282193     22.740041
 3650.0   -502.181629    245.678864      5.334640     23.034279
 3700.0   -515.329311    251.205369      5.386342     23.329385
 3750.0   -528.677674    256.786959      5.437614     23.625216
 3800.0   -542.217403    262.439186      5.488775     23.921627
 3850.0   -555.939185    268.177602      5.540140     24.218476
 3900.0   -569.833705    274.017761      5.592028     24.515619
 3950.0   -583.891648    279.975215      5.644756     24.812914
 4000.0   -598.103700    286.065518      5.698640     25.110217
 4050.0   -612.460546    292.304221      5.753998     25.407385
 4100.0   -626.952873    298.706878      5.811147     25.704275
 4150.0   -641.571413    305.288873      5.870400     26.000744
 4200.0   -656.309676    312.055899      5.931883     26.296690
 4250.0   -671.165392    318.998901      5.995432     26.592074
 4300.0   -686.136650    326.107583      6.060860     26.886860
 4350.0   -701.221534    333.371649      6.127978     27.181015
 4400.0   -716.418132    340.780803      6.196599     27.474504
 4450.0   -731.724530    348.324750      6.266536     27.767292
 4500.0   -747.138816    355.993195      6.337600     28.059345
 4550.0   -762.659074    363.775841      6.409605     28.350628
 4600.0   -778.283392    371.662394      6.482362     28.641106
 4650.0   -794.009857    379.642557      6.555685     28.930744
 4700.0   -809.836555    387.706035      6.629384     29.219509
 4750.0   -825.761573    395.842532      6.703274     29.507366
 4800.0   -841.782996    404.041753      6.777165     29.794279
 4850.0   -857.898913    412.293402      6.850871     30.080215
 4900.0   -874.107408    420.587183      6.924203     30.365139
 4950.0   -890.406570    428.912802      6.996975     30.649016
 5000.0   -906.794840    437.261131      7.069019     30.931819
 5050.0   -923.273133    445.631145      7.140313     31.213570
 5100.0   -939.843409    454.025253      7.210894     31.494314
 5150.0   -956.507634    462.445877      7.280802     31.774096
 5200.0   -973.267770    470.895437      7.350074     32.052959
 5250.0   -990.125784    479.376354      7.418749     32.330947
 5300.0  -1007.083640    487.891049      7.486866     32.608105
 5350.0  -1024.143302    496.441944      7.554463     32.884477
 5400.0  -1041.306734    505.031458      7.621578     33.160107
 5450.0  -1058.575902    513.662013      7.688250     33.435039
 5500.0  -1075.952770    522.336030      7.754517     33.709319
 5550.0  -1093.439302    531.055930      7.820418     33.982989
 5600.0  -1111.037463    539.824134      7.885991     34.256094
 5650.0  -1128.749218    548.643063      7.951275     34.528679
 5700.0  -1146.576531    557.515137      8.016308     34.800787
 5750.0  -1164.521366    566.442778      8.081129     35.072463
 5800.0  -1182.585689    575.428407      8.145775     35.343751
 5850.0  -1200.771464    584.474444      8.210286     35.614695
 5900.0  -1219.080654    593.583311      8.274700     35.885340
 5950.0  -1237.515226    602.757429      8.339054     36.155730
 6000.0  -1256.077143    611.999218      8.403389     36.425908
 6050.0  -1274.768370    621.311099      8.467742     36.695920
 6100.0  -1293.590872    630.695494      8.532152     36.965809
 6150.0  -1312.546612    640.154823      8.596656     37.235619
 6200.0  -1331.637557    649.691507      8.661294     37.505395
 6250.0  -1350.865162    659.307605      8.726098     37.775173
 6300.0  -1370.228973    669.003809      8.791074     38.044955
 6350.0  -1389.728087    678.780488      8.856225     38.314735
 6400.0  -1409.361598    688.638013      8.921552     38.584510
 6450.0  -1429.128603    698.576755      8.987056     38.854272
 6500.0  -1449.028197    708.597083      9.052739     39.124019
 6550.0  -1469.059476    718.699368      9.118603     39.393743
 6600.0  -1489.221535    728.883980      9.184648     39.663441
 6650.0  -1509.513469    739.151289      9.250878     39.933107
 6700.0  -1529.934376    749.501666      9.317293     40.202736
 6750.0  -1550.483350    759.935481      9.383895     40.472323
 6800.0  -1571.159487    770.453104      9.450685     40.741863
 6850.0  -1591.961882    781.054906      9.517666     41.011350
 6900.0  -1612.889632    791.741256      9.584838     41.280780
 6950.0  -1633.941832    802.512525      9.652203     41.550147
 7000.0  -1655.117577    813.369083      9.719762     41.819446
 7050.0  -1676.415963    824.311301      9.787518     42.088673
 7100.0  -1697.836086    835.339548      9.855472     42.357821
 7150.0  -1719.377042    846.454196      9.923625     42.626887
 7200.0  -1741.037926    857.655613      9.991979     42.895864
 7250.0  -1762.817833    868.944172     10.060536     43.164748
 7300.0  -1784.715860    880.320241     10.129297     43.433533
 7350.0  -1806.731103    891.784191     10.198263     43.702215
 7400.0  -1828.862655    903.336392     10.267437     43.970789
 7450.0  -1851.109615    914.977215     10.336820     44.239248
 7500.0  -1873.471076    926.707030     10.406412     44.507588
 7550.0  -1895.946135    938.526206     10.476217     44.775805
 7600.0  -1918.533887    950.435116     10.546235     45.043892
 7650.0  -1941.233428    962.434128     10.616469     45.311845
 7700.0  -1964.043854    974.523612     10.686918     45.579658
 7750.0  -1986.964260    986.703940     10.757586     45.847327
 7800.0  -2009.993742    998.975482     10.828474     46.114847
 7850.0  -2033.131396   1011.338607     10.899583     46.382211
 7900.0  -2056.376317   1023.793686     10.970915     46.649416
 7950.0  -2079.727601   1036.341089     11.042472     46.916455
 8000.0  -2103.184343   1048.981187     11.114254     47.183325
 8050.0  -2126.745639   1061.714349     11.186264     47.450019
 8100.0  -2150.410586   1074.540947     11.258503     47.716533
 8150.0  -2174.178277   1087.461349     11.330973     47.982861
 8200.0  -2198.047810   1100.475928     11.403675     48.248999
 8250.0  -2222.018280   1113.585052     11.476611     48.514941
 8300.0  -2246.088782   1126.789092     11.549782     48.780682
 8350.0  -2270.258412   1140.088418     11.623190     49.046217
 8400.0  -2294.526265   1153.483401     11.696837     49.311541
 8450.0  -2318.891438   1166.974411     11.770724     49.576649
 8500.0  -2343.353026   1180.561818     11.844853     49.841535
 8550.0  -2367.910125   1194.245993     11.919224     50.106195
 8600.0  -2392.561830   1208.027305     11.993841     50.370623
 8650.0  -2417.307237   1221.906125     12.068704     50.634815
 8700.0  -2442.145442   1235.882823     12.143814     50.898765
 8750.0  -2467.075540   1249.957770     12.219175     51.162468
 8800.0  -2492.096626   1264.131335     12.294786     51.425918
 8850.0  -2517.207797   1278.403889     12.370650     51.689112
 8900.0  -2542.408149   1292.775803     12.446768     51.952043
 8950.0  -2567.696776   1307.247446     12.523142     52.214707
 9000.0  -2593.072775   1321.819189     12.599773     52.477098
 9050.0  -2618.535241   1336.491402     12.676663     52.739212
 9100.0  -2644.083269   1351.264455     12.753813     53.001043
 9150.0  -2669.715957   1366.138718     12.831226     53.262586
 9200.0  -2695.432398   1381.114563     12.908902     53.523836
 9250.0  -2721.231689   1396.192359     12.986843     53.784787
 9300.0  -2747.112925   1411.372476     13.065051     54.045436
 9350.0  -2773.075202   1426.655284     13.143527     54.305776
 9400.0  -2799.117616   1442.041154     13.222273     54.565802
 9450.0  -2825.239263   1457.530457     13.301290     54.825510
 9500.0  -2851.439237   1473.123562     13.380580     55.084894
 9550.0  -2877.716635   1488.820840     13.460145     55.343950
 9600.0  -2904.070552   1504.622660     13.539986     55.602671
 9650.0  -2930.500084   1520.529394     13.620104     55.861053
 9700.0  -2957.004327   1536.541411     13.700502     56.119091
 9750.0  -2983.582376   1552.659082     13.781181     56.376779
 9800.0  -3010.233326   1568.882777     13.862141     56.634114
 9850.0  -3036.956275   1585.212866     13.943386     56.891088
 9900.0  -3063.750316   1601.649720     14.024916     57.147698
 9950.0  -3090.614546   1618.193708     14.106734     57.403938
10000.0  -3117.548061   1634.845202     14.188840     57.659803
10050.0  -3144.549956   1651.604571     14.271236     57.915287
10100.0  -3171.619326   1668.472185     14.353923     58.170387
10150.0  -3198.755268   1685.448416     14.436905     58.425096
10200.0  -3225.956877   1702.533632     14.520181     58.679410
10250.0  -3253.223249   1719.728205     14.603753     58.933324
10300.0  -3280.553479   1737.032504     14.687623     59.186831
10350.0  -3307.946663   1754.446900     14.771793     59.439928
10400.0  -3335.401897   1771.971764     14.856264     59.692609
10450.0  -3362.918276   1789.607464     14.941038     59.944869
10500.0  -3390.494896   1807.354373     15.026116     60.196702
10550.0  -3418.130852   1825.212859     15.111500     60.448105
10600.0  -3445.825241   1843.183294     15.197191     60.699071
10650.0  -3473.577158   1861.266047     15.283192     60.949595
10700.0  -3501.385698   1879.461489     15.369502     61.199673
10750.0  -3529.249957   1897.769990     15.456125     61.449299
10800.0  -3557.169032   1916.191920     15.543062     61.698468
10850.0  -3585.142016   1934.727650     15.630313     61.947175
10900.0  -3613.168007   1953.377549     15.717882     62.195415
10950.0  -3641.246100   1972.141989     15.805768     62.443183
11000.0  -3669.375390   1991.021339     15.893975     62.690473
11050.0  -3697.554973   2010.015969     15.982503     62.937281
11100.0  -3725.783945   2029.126251     16.071354     63.183601
11150.0  -3754.061401   2048.352553     16.160530     63.429429
11200.0  -3782.386437   2067.695247     16.250032     63.674758
11250.0  -3810.758149   2087.154702     16.339862     63.919585
11300.0  -3839.175632   2106.731290     16.430021     64.163904
11350.0  -3867.637982   2126.425379     16.520511     64.407709
11400.0  -3896.144295   2146.237341     16.611333     64.650996
11450.0  -3924.693666   2166.167546     16.702490     64.893760
11500.0  -3953.285191   2186.216364     16.793981     65.135995
11550.0  -3981.917966   2206.384164     16.885810     65.377696
11600.0  -4010.591086   2226.671319     16.977978     65.618858
11650.0  -4039.303646   2247.078197     17.070486     65.859477
11700.0  -4068.054743   2267.605169     17.163336     66.099546
11750.0  -4096.843473   2288.252606     17.256529     66.339062
11800.0  -4125.668930   2309.020877     17.350067     66.578018
11850.0  -4154.530210   2329.910353     17.443952     66.816409
11900.0  -4183.426410   2350.921403     17.538184     67.054231
11950.0  -4212.356625   2372.054400     17.632767     67.291479
12000.0  -4241.319949   2393.309712     17.727700     67.528146
12050.0  -4270.315480   2414.687709     17.822987     67.764229
12100.0  -4299.342313   2436.188763     17.918627     67.999721
12150.0  -4328.399543   2457.813243     18.014624     68.234619
12200.0  -4357.486266   2479.561520     18.110978     68.468916
12250.0  -4386.601577   2501.433964     18.207691     68.702608
12300.0  -4415.744573   2523.430945     18.304765     68.935689
12350.0  -4444.914349   2545.552834     18.402200     69.168155
12400.0  -4474.110000   2567.800000     18.500000     69.400000
