#Lambda        Dielectric Constant          Refractive Index
# [nm]        [Real]        [Imag]        [Real]        [Imag]
   10.0      0.918468      0.055227      0.958800      0.028800
   15.0      0.846904      0.073140      0.921766      0.039695
   20.0      0.776586      0.134264      0.887374      0.075408
   25.0      0.686475      0.231624      0.842826      0.137113
   30.0      0.560225      0.321266      0.776785      0.206722
   35.0      0.371818      0.389796      0.674961      0.289018
   40.0      0.161968      0.612791      0.630558      0.485380
   45.0      0.042662      0.827713      0.660087      0.626954
   50.0     -0.168513      1.115578      0.692788      0.805145
   55.0     -0.278509      1.652180      0.835732      0.988421
   60.0     -0.049867      2.141578      1.022888      1.046923
   65.0      0.430651      2.479308      1.213928      1.021239
   70.0      0.908798      2.315929      1.303231      0.888487
   75.0      0.857146      2.024193      1.235994      0.818831
   80.0      0.745363      1.989303      1.197840      0.830369
   85.0      0.613043      2.059477      1.175079      0.876267
   90.0      0.480768      2.175649      1.163807      0.934609
   95.0      0.450271      2.306163      1.183271      0.974442
  100.0      0.361600      2.541000      1.210000      1.050000
  105.0      0.352577      2.744660      1.248965      1.098783
  110.0      0.468707      3.022231      1.327963      1.137858
  115.0      0.744558      3.157612      1.412241      1.117962
  120.0      0.956556      3.063452      1.443252      1.061312
  125.0      1.073576      2.886559      1.441055      1.001538
  130.0      1.050981      2.711982      1.407016      0.963727
  135.0      0.944254      2.577312      1.358147      0.948830
  140.0      0.801932      2.457820      1.301424      0.944313
  145.0      0.635507      2.415722      1.251670      0.965001
  150.0      0.438466      2.372271      1.193937      0.993464
  155.0      0.216000      2.327800      1.130000      1.030000
  160.0     -0.028182      2.294100      1.064539      1.077602
  165.0     -0.321373      2.421809      1.029972      1.175652
  170.0     -0.523682      2.463484      0.998712      1.233321
  175.0     -0.747928      2.554722      0.978284      1.305722
  180.0     -0.998226      2.654523      0.958601      1.384604
  185.0     -1.224520      2.771988      0.950225      1.458578
  190.0     -1.439682      2.900059      0.948097      1.529272
  195.0     -1.702776      3.016903      0.938407      1.607343
  200.0     -1.938800      3.158400      0.940000      1.680000
  205.0     -2.195996      3.312750      0.943042      1.756469
  210.0     -2.368173      3.528380      0.969856      1.819009
  215.0     -2.603060      3.608782      0.960829      1.877801
  220.0     -2.887734      3.829594      0.976919      1.960118
  225.0     -3.121555      4.005492      0.989090      2.024822
  230.0     -3.388734      4.197645      1.001500      2.095660
  235.0     -3.643199      4.440349      1.024836      2.166424
  240.0     -3.939637      4.711980      1.049332      2.245151
  245.0     -4.181243      5.007934      1.082298      2.313617
  250.0     -4.417870      5.281991      1.110912      2.377324
  255.0     -4.670369      5.612660      1.146989      2.446702
  260.0     -4.883482      6.020722      1.197668      2.513444
  265.0     -5.031496      6.450639      1.254862      2.570338
  270.0     -5.049759      6.849565      1.315310      2.603761
  275.0     -5.141354      7.221301      1.364423      2.646275
  280.0     -5.107770      7.635760      1.428035      2.673523
  285.0     -5.046792      7.969039      1.480928      2.690586
  290.0     -4.978680      8.259014      1.527188      2.703963
  295.0     -4.853026      8.554206      1.578274      2.709985
  300.0     -4.724999      8.712151      1.610302      2.705149
  305.0     -4.601863      8.772792      1.628589      2.693374
  310.0     -4.492800      8.790400      1.640000      2.680000
  315.0     -4.430858      8.777046      1.643334      2.670465
  320.0     -4.472708      8.738842      1.634686      2.672993
  325.0     -4.606654      8.680048      1.615585      2.686398
  330.0     -4.744249      8.606118      1.594122      2.699189
  335.0     -4.928546      8.541750      1.570522      2.719392
  340.0     -5.242837      8.517979      1.542695      2.760910
  345.0     -5.633684      8.549430      1.517398      2.817123
  350.0     -6.026565      8.647120      1.502270      2.878076
  355.0     -6.390130      8.824185      1.500788      2.939809
  360.0     -6.707077      9.075434      1.512835      2.999260
  365.0     -6.976450      9.348966      1.531120      3.053000
  370.0     -7.206214      9.603113      1.549229      3.099485
  375.0     -7.425753      9.854412      1.567368      3.143645
  380.0     -7.661722     10.126904      1.586966      3.190549
  385.0     -7.896713     10.416190      1.608487      3.237833
  390.0     -8.097826     10.707309      1.631986      3.280480
  395.0     -8.258810     10.989454      1.656490      3.317113
  400.0     -8.400100     11.256000      1.680000      3.350000
  405.0     -8.539499     11.501960      1.700883      3.381163
  410.0     -8.679648     11.728183      1.719158      3.411014
  415.0     -8.819447     11.937025      1.735257      3.439568
  420.0     -8.960515     12.133546      1.749732      3.467305
  425.0     -9.108609     12.326919      1.763312      3.495415
  430.0     -9.269712     12.526382      1.776720      3.525114
  435.0     -9.446921     12.734672      1.790112      3.556886
  440.0     -9.640456     12.948023      1.803082      3.590488
  445.0     -9.850295     13.162529      1.815219      3.625637
  450.0    -10.072925     13.378779      1.826777      3.661942
  455.0    -10.300747     13.602618      1.838783      3.698877
  460.0    -10.525937     13.840179      1.852310      3.735911
  465.0    -10.743735     14.094774      1.867958      3.772694
  470.0    -10.957030     14.362653      1.885148      3.809337
  475.0    -11.169885     14.638983      1.903122      3.846015
  480.0    -11.386079     14.919204      1.921165      3.882893
  485.0    -11.605428     15.202493      1.939175      3.919909
  490.0    -11.824856     15.490758      1.957496      3.956840
  495.0    -12.041222     15.785972      1.976484      3.993459
  500.0    -12.251305     16.089722      1.996457      4.029520
  505.0    -12.451350     16.400943      2.017477      4.064637
  510.0    -12.637373     16.717446      2.039494      4.098364
  515.0    -12.805389     17.037037      2.062459      4.130255
  520.0    -12.951964     17.357601      2.086306      4.159921
  525.0    -13.079767     17.677892      2.110784      4.187581
  530.0    -13.195263     17.997210      2.135521      4.213837
  535.0    -13.304976     18.314859      2.160148      4.239295
  540.0    -13.415418     18.630146      2.184295      4.264560
  545.0    -13.530299     18.942307      2.207720      4.289969
  550.0    -13.646708     19.250415      2.230490      4.315222
  555.0    -13.760779     19.553520      2.252718      4.339927
  560.0    -13.868647     19.850671      2.274513      4.363691
  565.0    -13.966466     20.140923      2.295986      4.386126
  570.0    -14.052264     20.423718      2.317194      4.407035
  575.0    -14.127420     20.699200      2.338096      4.426564
  580.0    -14.193660     20.967580      2.358639      4.444897
  585.0    -14.252710     21.229075      2.378773      4.462219
  590.0    -14.306297     21.483896      2.398447      4.478711
  595.0    -14.356248     21.732144      2.417596      4.494557
  600.0    -14.404895     21.973331      2.436084      4.509935
  605.0    -14.454735     22.206785      2.453753      4.525022
  610.0    -14.508264     22.431834      2.470446      4.539996
  615.0    -14.567977     22.647805      2.486005      4.555032
  620.0    -14.636369     22.854024      2.500272      4.570309
  625.0    -14.715286     23.050362      2.513162      4.585972
  630.0    -14.804126     23.238720      2.524869      4.602052
  635.0    -14.901710     23.421484      2.535649      4.618551
  640.0    -15.006857     23.601037      2.545761      4.635472
  645.0    -15.118390     23.779763      2.555462      4.652817
  650.0    -15.235130     23.960046      2.565010      4.670589
  655.0    -15.355890     24.144189      2.574656      4.688787
  660.0    -15.479330     24.332436      2.584486      4.707311
  665.0    -15.603946     24.522870      2.594412      4.725959
  670.0    -15.728224     24.713466      2.604338      4.744522
  675.0    -15.850652     24.902202      2.614167      4.762794
  680.0    -15.969717     25.087053      2.623802      4.780566
  685.0    -16.083907     25.265998      2.633149      4.797631
  690.0    -16.191717     25.437017      2.642110      4.813782
  695.0    -16.292782     25.598776      2.650596      4.828934
  700.0    -16.389009     25.751303      2.658531      4.843244
  705.0    -16.482574     25.894789      2.665839      4.856899
  710.0    -16.575656     26.029425      2.672446      4.870085
  715.0    -16.670431     26.155402      2.678277      4.882988
  720.0    -16.769076     26.272909      2.683257      4.895796
  725.0    -16.873768     26.382139      2.687311      4.908693
  730.0    -16.986684     26.483281      2.690365      4.921868
  735.0    -17.109803     26.576854      2.692381      4.935500
  740.0    -17.244579     26.664239      2.693421      4.949753
  745.0    -17.392379     26.746959      2.693563      4.964788
  750.0    -17.554572     26.826537      2.692885      4.980768
  755.0    -17.732525     26.904495      2.691465      4.997853
  760.0    -17.927608     26.982356      2.689381      5.016206
  765.0    -18.141188     27.061644      2.686711      5.035987
  770.0    -18.374632     27.143880      2.683532      5.057358
  775.0    -18.629310     27.230588      2.679924      5.080481
  780.0    -18.905825     27.323112      2.675977      5.105449
  785.0    -19.201901     27.422130      2.671831      5.132103
  790.0    -19.514583     27.528161      2.667640      5.160224
  795.0    -19.840916     27.641724      2.663556      5.189593
  800.0    -20.177947     27.763340      2.659731      5.219991
  805.0    -20.522721     27.893526      2.656318      5.251197
  810.0    -20.872284     28.032803      2.653470      5.282993
  815.0    -21.223680     28.181690      2.651338      5.315161
  820.0    -21.573957     28.340707      2.650076      5.347479
  825.0    -21.920159     28.510373      2.649836      5.379730
  830.0    -22.259496     28.691134      2.650758      5.411705
  835.0    -22.591010     28.882626      2.652844      5.443315
  840.0    -22.914878     29.083981      2.656008      5.474549
  845.0    -23.231296     29.294323      2.660167      5.505394
  850.0    -23.540460     29.512775      2.665232      5.535839
  855.0    -23.842565     29.738460      2.671120      5.565871
  860.0    -24.137807     29.970504      2.677744      5.595480
  865.0    -24.426382     30.208030      2.685018      5.624653
  870.0    -24.708486     30.450161      2.692856      5.653379
  875.0    -24.984313     30.696021      2.701174      5.681646
  880.0    -25.254060     30.944735      2.709884      5.709442
  885.0    -25.517923     31.195426      2.718901      5.736755
  890.0    -25.776115     31.447278      2.728146      5.763578
  895.0    -26.028963     31.699824      2.737572      5.789922
  900.0    -26.276830     31.952720      2.747144      5.815807
  905.0    -26.520081     32.205623      2.756828      5.841251
  910.0    -26.759078     32.458190      2.766590      5.866274
  915.0    -26.994188     32.710077      2.776396      5.890896
  920.0    -27.225773     32.960942      2.786212      5.915136
  925.0    -27.454198     33.210440      2.796002      5.939012
  930.0    -27.679827     33.458229      2.805733      5.962544
  935.0    -27.903024     33.703965      2.815370      5.985752
  940.0    -28.124153     33.947305      2.824879      6.008655
  945.0    -28.343578     34.187905      2.834226      6.031272
  950.0    -28.561665     34.425423      2.843376      6.053621
  955.0    -28.778775     34.659517      2.852295      6.075724
  960.0    -28.995280     34.890008      2.860961      6.097602
  965.0    -29.211558     35.117032      2.869374      6.119283
  970.0    -29.427988     35.340757      2.877536      6.140799
  975.0    -29.644951     35.561350      2.885451      6.162178
  980.0    -29.862826     35.778981      2.893120      6.183450
  985.0    -30.081994     35.993817      2.900546      6.204644
  990.0    -30.302834     36.206027      2.907732      6.225791
  995.0    -30.525726     36.415780      2.914681      6.246919
 1000.0    -30.751050     36.623244      2.921395      6.268059
 1005.0    -30.979187     36.828587      2.927876      6.289240
 1010.0    -31.210515     37.031978      2.934128      6.310492
 1015.0    -31.445414     37.233585      2.940153      6.331844
 1020.0    -31.684266     37.433576      2.945952      6.353326
 1025.0    -31.927449     37.632120      2.951530      6.374968
 1030.0    -32.175344     37.829385      2.956889      6.396798
 1035.0    -32.428321     38.025539      2.962031      6.418847
 1040.0    -32.686411     38.220730      2.966966      6.441121
 1045.0    -32.949204     38.415079      2.971714      6.463598
 1050.0    -33.216258     38.608707      2.976293      6.486253
 1055.0    -33.487131     38.801732      2.980725      6.509063
 1060.0    -33.761384     38.994276      2.985027      6.532003
 1065.0    -34.038575     39.186457      2.989220      6.555049
 1070.0    -34.318263     39.378396      2.993324      6.578177
 1075.0    -34.600007     39.570213      2.997359      6.601363
 1080.0    -34.883367     39.762026      3.001343      6.624582
 1085.0    -35.167901     39.953957      3.005297      6.647811
 1090.0    -35.453168     40.146125      3.009240      6.671025
 1095.0    -35.738728     40.338649      3.013192      6.694201
 1100.0    -36.024140     40.531650      3.017173      6.717313
 1105.0    -36.308962     40.725248      3.021201      6.740338
 1110.0    -36.592753     40.919561      3.025298      6.763252
 1115.0    -36.875073     41.114711      3.029483      6.786030
 1120.0    -37.155481     41.310817      3.033774      6.808648
 1125.0    -37.433536     41.507999      3.038193      6.831083
 1130.0    -37.708821     41.706366      3.042756      6.853311
 1135.0    -37.981300     41.905870      3.047464      6.875329
 1140.0    -38.251224     42.106341      3.052299      6.897148
 1145.0    -38.518853     42.307607      3.057246      6.918780
 1150.0    -38.784448     42.509495      3.062286      6.940237
 1155.0    -39.048268     42.711832      3.067404      6.961531
 1160.0    -39.310573     42.914446      3.072582      6.982673
 1165.0    -39.571623     43.117164      3.077804      7.003676
 1170.0    -39.831679     43.319813      3.083053      7.024551
 1175.0    -40.091000     43.522221      3.088312      7.045310
 1180.0    -40.349846     43.724215      3.093565      7.065964
 1185.0    -40.608478     43.925622      3.098795      7.086527
 1190.0    -40.867154     44.126270      3.103985      7.107008
 1195.0    -41.126136     44.325986      3.109118      7.127422
 1200.0    -41.385683     44.524597      3.114178      7.147778
 1205.0    -41.646055     44.721931      3.119147      7.168089
 1210.0    -41.907512     44.917815      3.124010      7.188367
 1215.0    -42.170314     45.112076      3.128749      7.208624
 1220.0    -42.434721     45.304542      3.133347      7.228871
 1225.0    -42.700993     45.495040      3.137788      7.249120
 1230.0    -42.969391     45.683398      3.142055      7.269384
 1235.0    -43.240173     45.869442      3.146131      7.289673
 1240.0    -43.513600     46.053000      3.150000      7.310000
 1245.0    -43.789875     46.233938      3.153648      7.330374
 1250.0    -44.068973     46.412275      3.157078      7.350795
 1255.0    -44.350813     46.588070      3.160297      7.371259
 1260.0    -44.635311     46.761381      3.163309      7.391763
 1265.0    -44.922386     46.932266      3.166122      7.412306
 1270.0    -45.211957     47.100783      3.168742      7.432882
 1275.0    -45.503940     47.266990      3.171174      7.453491
 1280.0    -45.798255     47.430945      3.173426      7.474127
 1285.0    -46.094819     47.592707      3.175503      7.494790
 1290.0    -46.393550     47.752333      3.177411      7.515474
 1295.0    -46.694367     47.909882      3.179156      7.536179
 1300.0    -46.997187     48.065412      3.180745      7.556900
 1305.0    -47.301928     48.218981      3.182185      7.577634
 1310.0    -47.608508     48.370647      3.183480      7.598379
 1315.0    -47.916846     48.520468      3.184637      7.619131
 1320.0    -48.226860     48.668503      3.185663      7.639888
 1325.0    -48.538467     48.814809      3.186564      7.660646
 1330.0    -48.851585     48.959445      3.187346      7.681403
 1335.0    -49.166133     49.102468      3.188014      7.702155
 1340.0    -49.482028     49.243938      3.188576      7.722900
 1345.0    -49.799189     49.383912      3.189037      7.743634
 1350.0    -50.117534     49.522448      3.189403      7.764355
 1355.0    -50.436980     49.659604      3.189682      7.785059
 1360.0    -50.757446     49.795439      3.189878      7.805743
 1365.0    -51.078850     49.930010      3.189998      7.826406
 1370.0    -51.401109     50.063376      3.190049      7.847042
 1375.0    -51.724143     50.195595      3.190036      7.867650
 1380.0    -52.047870     50.326724      3.189965      7.888227
 1385.0    -52.372297     50.456792      3.189840      7.908773
 1390.0    -52.697538     50.585787      3.189658      7.929294
 1395.0    -53.023718     50.713698      3.189416      7.949797
 1400.0    -53.350959     50.840511      3.189114      7.970288
 1405.0    -53.679385     50.966213      3.188747      7.990772
 1410.0    -54.009118     51.090792      3.188314      8.011257
 1415.0    -54.340282     51.214235      3.187813      8.031747
 1420.0    -54.672999     51.336528      3.187241      8.052251
 1425.0    -55.007394     51.457660      3.186596      8.072773
 1430.0    -55.343589     51.577617      3.185876      8.093320
 1435.0    -55.681708     51.696386      3.185078      8.113898
 1440.0    -56.021873     51.813955      3.184200      8.134513
 1445.0    -56.364207     51.930311      3.183240      8.155171
 1450.0    -56.708834     52.045441      3.182196      8.175879
 1455.0    -57.055878     52.159332      3.181064      8.196643
 1460.0    -57.405460     52.271971      3.179844      8.217469
 1465.0    -57.757704     52.383346      3.178532      8.238364
 1470.0    -58.112734     52.493443      3.177126      8.259332
 1475.0    -58.470672     52.602250      3.175624      8.280381
 1480.0    -58.831642     52.709754      3.174024      8.301517
 1485.0    -59.195766     52.815942      3.172323      8.322746
 1490.0    -59.563169     52.920801      3.170519      8.344074
 1495.0    -59.933972     53.024319      3.168610      8.365508
 1500.0    -60.308300     53.126482      3.166593      8.387053
 1505.0    -60.686275     53.227278      3.164466      8.408716
 1510.0    -61.068021     53.326694      3.162227      8.430502
 1515.0    -61.453660     53.424717      3.159874      8.452419
 1520.0    -61.843316     53.521335      3.157404      8.474472
 1525.0    -62.237112     53.616533      3.154814      8.496668
 1530.0    -62.635171     53.710301      3.152104      8.519012
 1535.0    -63.037616     53.802624      3.149269      8.541511
 1540.0    -63.444570     53.893490      3.146309      8.564172
 1545.0    -63.856157     53.982886      3.143220      8.586999
 1550.0    -64.272500     54.070800      3.140000      8.610000
 1555.0    -64.693695     54.157230      3.136649      8.633179
 1560.0    -65.119736     54.242223      3.133169      8.656536
 1565.0    -65.550588     54.325839      3.129565      8.680070
 1570.0    -65.986217     54.408136      3.125842      8.703777
 1575.0    -66.426592     54.489172      3.122004      8.727657
 1580.0    -66.871676     54.569008      3.118056      8.751707
 1585.0    -67.321438     54.647702      3.114001      8.775926
 1590.0    -67.775843     54.725313      3.109846      8.800313
 1595.0    -68.234858     54.801900      3.105594      8.824864
 1600.0    -68.698449     54.877522      3.101249      8.849579
 1605.0    -69.166583     54.952237      3.096817      8.874455
 1610.0    -69.639225     55.026105      3.092302      8.899491
 1615.0    -70.116343     55.099184      3.087708      8.924685
 1620.0    -70.597902     55.171534      3.083040      8.950035
 1625.0    -71.083870     55.243214      3.078302      8.975539
 1630.0    -71.574211     55.314282      3.073499      9.001196
 1635.0    -72.068894     55.384797      3.068635      9.027004
 1640.0    -72.567884     55.454818      3.063716      9.052960
 1645.0    -73.071147     55.524404      3.058745      9.079063
 1650.0    -73.578650     55.593615      3.053727      9.105312
 1655.0    -74.090359     55.662508      3.048666      9.131704
 1660.0    -74.606241     55.731143      3.043567      9.158238
 1665.0    -75.126262     55.799580      3.038435      9.184912
 1670.0    -75.650388     55.867876      3.033274      9.211723
 1675.0    -76.178586     55.936090      3.028089      9.238671
 1680.0    -76.710822     56.004283      3.022884      9.265753
 1685.0    -77.247063     56.072512      3.017663      9.292968
 1690.0    -77.787274     56.140836      3.012432      9.320314
 1695.0    -78.331423     56.209315      3.007194      9.347788
 1700.0    -78.879475     56.278007      3.001955      9.375390
 1705.0    -79.431398     56.346971      2.996718      9.403117
 1710.0    -79.987156     56.416267      2.991489      9.430967
 1715.0    -80.546718     56.485952      2.986271      9.458940
 1720.0    -81.110048     56.556087      2.981070      9.487032
 1725.0    -81.677114     56.626730      2.975890      9.515242
 1730.0    -82.247882     56.697940      2.970735      9.543568
 1735.0    -82.822318     56.769775      2.965609      9.572009
 1740.0    -83.400389     56.842295      2.960519      9.600563
 1745.0    -83.982061     56.915559      2.955467      9.629228
 1750.0    -84.567300     56.989626      2.950458      9.658001
 1755.0    -85.156072     57.064554      2.945498      9.686882
 1760.0    -85.748345     57.140403      2.940590      9.715868
 1765.0    -86.344084     57.217231      2.935739      9.744958
 1770.0    -86.943257     57.295097      2.930950      9.774150
 1775.0    -87.545827     57.374058      2.926227      9.803441
 1780.0    -88.151750     57.454147      2.921571      9.832831
 1785.0    -88.760977     57.535390      2.916983      9.862315
 1790.0    -89.373459     57.617812      2.912464      9.891893
 1795.0    -89.989146     57.701437      2.908014      9.921562
 1800.0    -90.607990     57.786289      2.903635      9.951319
 1805.0    -91.229941     57.872395      2.899327      9.981162
 1810.0    -91.854949     57.959778      2.895091     10.011089
 1815.0    -92.482967     58.048463      2.890926     10.041097
 1820.0    -93.113944     58.138475      2.886835     10.071185
 1825.0    -93.747831     58.229839      2.882817     10.101349
 1830.0    -94.384580     58.322580      2.878874     10.131587
 1835.0    -95.024140     58.416722      2.875006     10.161898
 1840.0    -95.666464     58.512290      2.871213     10.192279
 1845.0    -96.311501     58.609309      2.867497     10.222727
 1850.0    -96.959202     58.707804      2.863858     10.253240
 1855.0    -97.609518     58.807799      2.860296     10.283815
 1860.0    -98.262400     58.909320      2.856813     10.314452
 1865.0    -98.917799     59.012390      2.853409     10.345146
 1870.0    -99.575666     59.117035      2.850085     10.375896
 1875.0   -100.235951     59.223280      2.846841     10.406700
 1880.0   -100.898605     59.331149      2.843679     10.437554
 1885.0   -101.563579     59.440668      2.840598     10.468458
 1890.0   -102.230824     59.551860      2.837600     10.499408
 1895.0   -102.900290     59.664751      2.834685     10.530401
 1900.0   -103.571929     59.779365      2.831854     10.561437
 1905.0   -104.245691     59.895727      2.829107     10.592512
 1910.0   -104.921526     60.013863      2.826446     10.623625
 1915.0   -105.599387     60.133796      2.823870     10.654772
 1920.0   -106.279223     60.255552      2.821381     10.685951
 1925.0   -106.960986     60.379154      2.818979     10.717161
 1930.0   -107.644625     60.504629      2.816666     10.748398
 1935.0   -108.330093     60.632001      2.814440     10.779661
 1940.0   -109.017339     60.761295      2.812305     10.810947
 1945.0   -109.706315     60.892535      2.810259     10.842254
 1950.0   -110.396972     61.025746      2.808304     10.873579
 1955.0   -111.089259     61.160953      2.806440     10.904920
 1960.0   -111.783129     61.298180      2.804668     10.936275
 1965.0   -112.478531     61.437453      2.802989     10.967642
 1970.0   -113.175417     61.578797      2.801403     10.999017
 1975.0   -113.873737     61.722235      2.799912     11.030400
 1980.0   -114.573443     61.867793      2.798515     11.061787
 1985.0   -115.274484     62.015496      2.797213     11.093176
 1990.0   -115.976812     62.165368      2.796008     11.124564
 1995.0   -116.680378     62.317434      2.794899     11.155951
 2000.0   -117.385132     62.471719      2.793888     11.187332
 2005.0   -118.091025     62.628248      2.792975     11.218706
 2010.0   -118.798009     62.787045      2.792161     11.250071
 2015.0   -119.506033     62.948135      2.791447     11.281423
 2020.0   -120.215049     63.111544      2.790832     11.312762
 2025.0   -120.925007     63.277295      2.790319     11.344084
 2030.0   -121.635858     63.445414      2.789907     11.375387
 2035.0   -122.347553     63.615925      2.789597     11.406669
 2040.0   -123.060043     63.788853      2.789390     11.437927
 2045.0   -123.773279     63.964222      2.789287     11.469159
 2050.0   -124.487211     64.142059      2.789288     11.500363
 2055.0   -125.201790     64.322387      2.789394     11.531537
 2060.0   -125.916967     64.505231      2.789606     11.562678
 2065.0   -126.632693     64.690616      2.789924     11.593783
 2070.0   -127.348925     64.878560      2.790348     11.624852
 2075.0   -128.065665     65.069032      2.790878     11.655882
 2080.0   -128.782937     65.261980      2.791512     11.686876
 2085.0   -129.500762     65.457351      2.792246     11.717834
 2090.0   -130.219165     65.655091      2.793079     11.748755
 2095.0   -130.938169     65.855148      2.794008     11.779642
 2100.0   -131.657797     66.057469      2.795032     11.810494
 2105.0   -132.378070     66.262001      2.796147     11.841312
 2110.0   -133.099014     66.468692      2.797353     11.872097
 2115.0   -133.820651     66.677488      2.798646     11.902849
 2120.0   -134.543003     66.888336      2.800024     11.933569
 2125.0   -135.266095     67.101184      2.801486     11.964258
 2130.0   -135.989948     67.315979      2.803029     11.994916
 2135.0   -136.714587     67.532668      2.804650     12.025543
 2140.0   -137.440033     67.751198      2.806348     12.056141
 2145.0   -138.166312     67.971515      2.808121     12.086709
 2150.0   -138.893444     68.193569      2.809965     12.117249
 2155.0   -139.621454     68.417304      2.811879     12.147761
 2160.0   -140.350364     68.642669      2.813861     12.178246
 2165.0   -141.080198     68.869611      2.815909     12.208704
 2170.0   -141.810979     69.098077      2.818019     12.239136
 2175.0   -142.542729     69.328013      2.820191     12.269542
 2180.0   -143.275472     69.559368      2.822421     12.299924
 2185.0   -144.009231     69.792087      2.824709     12.330281
 2190.0   -144.744029     70.026119      2.827050     12.360615
 2195.0   -145.479889     70.261411      2.829444     12.390925
 2200.0   -146.216834     70.497909      2.831887     12.421213
 2205.0   -146.954887     70.735560      2.834378     12.451479
 2210.0   -147.694072     70.974313      2.836915     12.481724
 2215.0   -148.434411     71.214113      2.839495     12.511948
 2220.0   -149.175927     71.454908      2.842116     12.542152
 2225.0   -149.918644     71.696646      2.844776     12.572337
 2230.0   -150.662584     71.939273      2.847472     12.602503
 2235.0   -151.407771     72.182736      2.850203     12.632650
 2240.0   -152.154227     72.426983      2.852967     12.662780
 2245.0   -152.901977     72.671961      2.855760     12.692892
 2250.0   -153.651042     72.917616      2.858580     12.722989
 2255.0   -154.401446     73.163897      2.861427     12.753069
 2260.0   -155.153212     73.410749      2.864297     12.783134
 2265.0   -155.906364     73.658121      2.867187     12.813184
 2270.0   -156.660923     73.905959      2.870097     12.843220
 2275.0   -157.416914     74.154210      2.873024     12.873243
 2280.0   -158.174359     74.402822      2.875964     12.903253
 2285.0   -158.933281     74.651742      2.878918     12.933251
 2290.0   -159.693704     74.900916      2.881881     12.963237
 2295.0   -160.455650     75.150293      2.884852     12.993212
 2300.0   -161.219143     75.399818      2.887828     13.023176
 2305.0   -161.984206     75.649440      2.890808     13.053131
 2310.0   -162.750861     75.899105      2.893789     13.083076
 2315.0   -163.519133     76.148761      2.896769     13.113013
 2320.0   -164.289043     76.398354      2.899746     13.142941
 2325.0   -165.060615     76.647832      2.902717     13.172862
 2330.0   -165.833872     76.897142      2.905680     13.202777
 2335.0   -166.608838     77.146231      2.908634     13.232685
 2340.0   -167.385534     77.395046      2.911575     13.262587
 2345.0   -168.163985     77.643534      2.914502     13.292484
 2350.0   -168.944214     77.891643      2.917413     13.322377
 2355.0   -169.726242     78.139319      2.920305     13.352266
 2360.0   -170.510095     78.386509      2.923175     13.382152
 2365.0   -171.295793     78.633162      2.926023     13.412035
 2370.0   -172.083362     78.879223      2.928844     13.441916
 2375.0   -172.872823     79.124640      2.931639     13.471796
 2380.0   -173.664200     79.369361      2.934403     13.501675
 2385.0   -174.457516     79.613331      2.937135     13.531553
 2390.0   -175.252794     79.856499      2.939833     13.561432
 2395.0   -176.050057     80.098812      2.942495     13.591312
 2400.0   -176.849328     80.340216      2.945117     13.621194
 2405.0   -177.650630     80.580659      2.947699     13.651077
 2410.0   -178.453987     80.820087      2.950238     13.680964
 2415.0   -179.259421     81.058449      2.952731     13.710853
 2420.0   -180.066955     81.295691      2.955176     13.740747
 2425.0   -180.876613     81.531760      2.957572     13.770645
 2430.0   -181.688418     81.766604      2.959915     13.800549
 2435.0   -182.502392     82.000169      2.962205     13.830458
 2440.0   -183.318558     82.232403      2.964437     13.860374
 2445.0   -184.136941     82.463253      2.966612     13.890296
 2450.0   -184.957563     82.692665      2.968725     13.920226
 2455.0   -185.780446     82.920588      2.970775     13.950165
 2460.0   -186.605614     83.146967      2.972759     13.980112
 2465.0   -187.433091     83.371751      2.974676     14.010068
 2470.0   -188.262899     83.594887      2.976524     14.040035
 2475.0   -189.095061     83.816320      2.978299     14.070012
 2480.0   -189.929600     84.036000      2.980000     14.100000
 2485.0   -190.766541     84.253899      2.981626     14.130000
 2490.0   -191.605911     84.470102      2.983178     14.160013
 2495.0   -192.447741     84.684716      2.984661     14.190040
 2500.0   -193.292058     84.897853      2.986077     14.220083
 2505.0   -194.138893     85.109621      2.987431     14.250142
 2510.0   -194.988275     85.320131      2.988725     14.280219
 2515.0   -195.840233     85.529493      2.989963     14.310314
 2520.0   -196.694797     85.737816      2.991149     14.340430
 2525.0   -197.551995     85.945210      2.992285     14.370566
 2530.0   -198.411856     86.151785      2.993375     14.400725
 2535.0   -199.274412     86.357651      2.994423     14.430908
 2540.0   -200.139689     86.562917      2.995432     14.461115
 2545.0   -201.007718     86.767693      2.996405     14.491348
 2550.0   -201.878528     86.972089      2.997345     14.521608
 2555.0   -202.752149     87.176215      2.998257     14.551896
 2560.0   -203.628609     87.380181      2.999143     14.582214
 2565.0   -204.507938     87.584095      3.000008     14.612562
 2570.0   -205.390165     87.788070      3.000853     14.642942
 2575.0   -206.275319     87.992212      3.001683     14.673354
 2580.0   -207.163430     88.196634      3.002501     14.703801
 2585.0   -208.054527     88.401444      3.003311     14.734283
 2590.0   -208.948640     88.606753      3.004115     14.764801
 2595.0   -209.845796     88.812669      3.004918     14.795357
 2600.0   -210.746027     89.019303      3.005722     14.825952
 2605.0   -211.649360     89.226765      3.006532     14.856587
 2610.0   -212.555826     89.435165      3.007350     14.887262
 2615.0   -213.465454     89.644611      3.008179     14.917980
 2620.0   -214.378272     89.855215      3.009024     14.948742
 2625.0   -215.294311     90.067085      3.009888     14.979548
 2630.0   -216.213599     90.280332      3.010773     15.010400
 2635.0   -217.136165     90.495065      3.011684     15.041298
 2640.0   -218.062040     90.711394      3.012624     15.072245
 2645.0   -218.991252     90.929429      3.013596     15.103241
 2650.0   -219.923830     91.149280      3.014603     15.134288
 2655.0   -220.859805     91.371057      3.015650     15.165386
 2660.0   -221.799204     91.594868      3.016739     15.196537
 2665.0   -222.742058     91.820825      3.017874     15.227742
 2670.0   -223.688395     92.049036      3.019058     15.259003
 2675.0   -224.638246     92.279612      3.020294     15.290319
 2680.0   -225.591638     92.512663      3.021587     15.321693
 2685.0   -226.548602     92.748297      3.022939     15.353126
 2690.0   -227.509167     92.986626      3.024353     15.384618
 2695.0   -228.473362     93.227758      3.025834     15.416172
 2700.0   -229.441216     93.471804      3.027384     15.447788
 2705.0   -230.412759     93.718873      3.029008     15.479467
 2710.0   -231.388020     93.969076      3.030707     15.511210
 2715.0   -232.367027     94.222521      3.032487     15.543020
 2720.0   -233.349812     94.479319      3.034349     15.574896
 2725.0   -234.336401     94.739579      3.036298     15.606840
 2730.0   -235.326826     95.003411      3.038337     15.638854
 2735.0   -236.321115     95.270926      3.040470     15.670937
 2740.0   -237.319298     95.542232      3.042699     15.703093
 2745.0   -238.321404     95.817440      3.045028     15.735321
 2750.0   -239.327461     96.096660      3.047460     15.767623
 2755.0   -240.337500     96.380000      3.050000     15.800000
 2760.0   -241.351533     96.667546      3.052649     15.832453
 2765.0   -242.369507     96.959280      3.055407     15.864980
 2770.0   -243.391353     97.255160      3.058273     15.897579
 2775.0   -244.417002     97.555142      3.061245     15.930247
 2780.0   -245.446383     97.859184      3.064322     15.962983
 2785.0   -246.479428     98.167242      3.067503     15.995785
 2790.0   -247.516066     98.479275      3.070787     16.028650
 2795.0   -248.556230     98.795240      3.074171     16.061576
 2800.0   -249.599848     99.115093      3.077656     16.094561
 2805.0   -250.646852     99.438792      3.081239     16.127603
 2810.0   -251.697172     99.766294      3.084919     16.160700
 2815.0   -252.750739    100.097556      3.088695     16.193849
 2820.0   -253.807484    100.432535      3.092566     16.227048
 2825.0   -254.867336    100.771189      3.096530     16.260296
 2830.0   -255.930227    101.113475      3.100586     16.293590
 2835.0   -256.996087    101.459350      3.104733     16.326927
 2840.0   -258.064846    101.808772      3.108969     16.360307
 2845.0   -259.136436    102.161697      3.113293     16.393726
 2850.0   -260.210786    102.518082      3.117704     16.427182
 2855.0   -261.287828    102.877885      3.122200     16.460673
 2860.0   -262.367491    103.241064      3.126781     16.494198
 2865.0   -263.449707    103.607575      3.131445     16.527754
 2870.0   -264.534406    103.977375      3.136190     16.561338
 2875.0   -265.621518    104.350422      3.141015     16.594949
 2880.0   -266.710975    104.726673      3.145919     16.628584
 2885.0   -267.802706    105.106085      3.150901     16.662242
 2890.0   -268.896642    105.488615      3.155959     16.695920
 2895.0   -269.992714    105.874221      3.161092     16.729616
 2900.0   -271.090852    106.262860      3.166299     16.763327
 2905.0   -272.190988    106.654488      3.171578     16.797053
 2910.0   -273.293050    107.049064      3.176928     16.830789
 2915.0   -274.396971    107.446544      3.182348     16.864536
 2920.0   -275.502680    107.846886      3.187837     16.898289
 2925.0   -276.610109    108.250046      3.193393     16.932047
 2930.0   -277.719187    108.655983      3.199014     16.965809
 2935.0   -278.829845    109.064652      3.204700     16.999571
 2940.0   -279.942014    109.476013      3.210450     17.033331
 2945.0   -281.055624    109.890020      3.216261     17.067088
 2950.0   -282.170607    110.306633      3.222133     17.100840
 2955.0   -283.286892    110.725807      3.228064     17.134583
 2960.0   -284.404410    111.147501      3.234053     17.168316
 2965.0   -285.523091    111.571672      3.240099     17.202037
 2970.0   -286.642867    111.998275      3.246201     17.235744
 2975.0   -287.763667    112.427270      3.252356     17.269434
 2980.0   -288.885423    112.858613      3.258565     17.303106
 2985.0   -290.008064    113.292261      3.264824     17.336756
 2990.0   -291.131522    113.728172      3.271134     17.370384
 2995.0   -292.255727    114.166302      3.277493     17.403986
 3000.0   -293.380609    114.606609      3.283899     17.437561
 3050.0   -304.651420    119.119996      3.350291     17.771334
 3100.0   -315.913600    123.804000      3.420000     18.100000
 3150.0   -327.114449    128.623168      3.491915     18.421916
 3200.0   -338.268233    133.571402      3.565706     18.737501
 3250.0   -349.405957    138.649943      3.641236     19.047686
 3300.0   -360.558629    143.860033      3.718370     19.353404
 3350.0   -371.757253    149.202911      3.796972     19.655588
 3400.0   -383.032836    154.679820      3.876908     19.955170
 3450.0   -394.416384    160.292000      3.958040     20.253083
 3500.0   -405.938904    166.040693      4.040235     20.550259
 3550.0   -417.631367    171.927139      4.123356     20.847630
 3600.0   -429.512528    177.952230      4.207310     21.145808
 3650.0   -441.570604    184.115991      4.292107     21.444602
 3700.0   -453.789124    190.418313      4.377774     21.743698
 3750.0   -466.151616    196.859088      4.464338     22.042784
 3800.0   -478.641609    203.438208      4.551825     22.341547
 3850.0   -491.242632    210.155563      4.640262     22.639674
 3900.0   -503.938213    217.011045      4.729675     22.936850
 3950.0   -516.711881    224.004545      4.820092     23.232764
 4000.0   -529.547163    231.135955      4.911538     23.527102
 4050.0   -542.427590    238.405166      5.004041     23.819550
 4100.0   -555.336689    245.812069      5.097627     24.109796
 4150.0   -568.258140    253.356557      5.192322     24.397530
 4200.0   -581.184287    261.038572      5.288127     24.682621
 4250.0   -594.120670    268.858138      5.385004     24.965213
 4300.0   -607.073932    276.815282      5.482912     25.245472
 4350.0   -620.050720    284.910033      5.581808     25.523565
 4400.0   -633.057678    293.142419      5.681651     25.799658
 4450.0   -646.101453    301.512468      5.782400     26.073917
 4500.0   -659.188689    310.020208      5.884014     26.346510
 4550.0   -672.326032    318.665668      5.986451     26.617602
 4600.0   -685.520128    327.448877      6.089669     26.887360
 4650.0   -698.777622    336.369862      6.193627     27.155950
 4700.0   -712.105159    345.428652      6.298284     27.423539
 4750.0   -725.509384    354.625275      6.403598     27.690293
 4800.0   -738.996944    363.959759      6.509528     27.956379
 4850.0   -752.574483    373.432133      6.616032     28.221963
 4900.0   -766.248647    383.042426      6.723068     28.487211
 4950.0   -780.026082    392.790665      6.830596     28.752291
 5000.0   -793.912532    402.676986      6.938579     29.017349
 5050.0   -807.907504    412.702268      7.047013     29.282409
 5100.0   -822.007858    422.867707      7.155911     29.547437
 5150.0   -836.210449    433.174496      7.265284     29.812402
 5200.0   -850.512127    443.623833      7.375144     30.077271
 5250.0   -864.909745    454.216913      7.485502     30.342013
 5300.0   -879.400155    464.954930      7.596370     30.606595
 5350.0   -893.980211    475.839082      7.707760     30.870985
 5400.0   -908.646763    486.870563      7.819683     31.135151
 5450.0   -923.396664    498.050569      7.932150     31.399062
 5500.0   -938.226768    509.380295      8.045175     31.662683
 5550.0   -953.133925    520.860938      8.158767     31.925985
 5600.0   -968.114988    532.493693      8.272939     32.188933
 5650.0   -983.166811    544.279755      8.387702     32.451497
 5700.0   -998.286244    556.220320      8.503068     32.713645
 5750.0  -1013.470140    568.316583      8.619049     32.975343
 5800.0  -1028.715352    580.569741      8.735656     33.236560
 5850.0  -1044.018731    592.980989      8.852901     33.497263
 5900.0  -1059.377131    605.551522      8.970795     33.757422
 5950.0  -1074.787403    618.282536      9.089350     34.017002
 6000.0  -1090.246400    631.175226      9.208578     34.275973
 6050.0  -1105.750974    644.230789      9.328490     34.534302
 6100.0  -1121.297978    657.450420      9.449098     34.791957
 6150.0  -1136.884263    670.835313      9.570413     35.048906
 6200.0  -1152.506682    684.386666      9.692448     35.305117
 6250.0  -1168.162374    698.105345      9.815210     35.560562
 6300.0  -1183.849557    711.990982      9.938696     35.815236
 6350.0  -1199.566703    726.042918     10.062901     36.069137
 6400.0  -1215.312283    740.260493     10.187816     36.322264
 6450.0  -1231.084771    754.643047     10.313438     36.574614
 6500.0  -1246.882638    769.189921     10.439758     36.826186
 6550.0  -1262.704355    783.900455     10.566772     37.076979
 6600.0  -1278.548396    798.773991     10.694472     37.326991
 6650.0  -1294.413232    813.809868     10.822852     37.576220
 6700.0  -1310.297336    829.007427     10.951907     37.824665
 6750.0  -1326.199178    844.366008     11.081629     38.072324
 6800.0  -1342.117232    859.884953     11.212013     38.319196
 6850.0  -1358.049970    875.563601     11.343053     38.565278
 6900.0  -1373.995863    891.401293     11.474742     38.810570
 6950.0  -1389.953383    907.397370     11.607074     39.055069
 7000.0  -1405.921004    923.551171     11.740042     39.298775
 7050.0  -1421.897195    939.862039     11.873641     39.541685
 7100.0  -1437.880431    956.329312     12.007864     39.783798
 7150.0  -1453.869182    972.952332     12.142705     40.025112
 7200.0  -1469.861922    989.730439     12.278158     40.265626
 7250.0  -1485.857121   1006.662974     12.414216     40.505338
 7300.0  -1501.853252   1023.749277     12.550874     40.744247
 7350.0  -1517.848787   1040.988688     12.688124     40.982350
 7400.0  -1533.842198   1058.380549     12.825961     41.219647
 7450.0  -1549.831958   1075.924199     12.964379     41.456135
 7500.0  -1565.816537   1093.618979     13.103370     41.691814
 7550.0  -1581.794409   1111.464230     13.242930     41.926681
 7600.0  -1597.764045   1129.459293     13.383052     42.160734
 7650.0  -1613.723918   1147.603507     13.523729     42.393973
 7700.0  -1629.672499   1165.896213     13.664955     42.626396
 7750.0  -1645.608260   1184.336751     13.806724     42.858001
 7800.0  -1661.529674   1202.924463     13.949030     43.088786
 7850.0  -1677.435213   1221.658689     14.091866     43.318750
 7900.0  -1693.323348   1240.538769     14.235227     43.547891
 7950.0  -1709.192552   1259.564043     14.379106     43.776208
 8000.0  -1725.041297   1278.733853     14.523496     44.003699
 8050.0  -1740.868054   1298.047539     14.668392     44.230363
 8100.0  -1756.671297   1317.504440     14.813787     44.456197
 8150.0  -1772.449496   1337.103899     14.959675     44.681200
 8200.0  -1788.201125   1356.845255     15.106050     44.905371
 8250.0  -1803.924655   1376.727848     15.252906     45.128709
 8300.0  -1819.618557   1396.751020     15.400236     45.351210
 8350.0  -1835.281305   1416.914111     15.548033     45.572874
 8400.0  -1850.911370   1437.216461     15.696293     45.793700
 8450.0  -1866.507225   1457.657411     15.845008     46.013685
 8500.0  -1882.067341   1478.236301     15.994172     46.232828
 8550.0  -1897.590190   1498.952472     16.143780     46.451127
 8600.0  -1913.074245   1519.805264     16.293824     46.668582
 8650.0  -1928.517977   1540.794018     16.444299     46.885189
 8700.0  -1943.919859   1561.918074     16.595198     47.100948
 8750.0  -1959.278363   1583.176773     16.746515     47.315857
 8800.0  -1974.591960   1604.569456     16.898244     47.529914
 8850.0  -1989.859124   1626.095463     17.050378     47.743119
 8900.0  -2005.078324   1647.754134     17.202912     47.955468
 8950.0  -2020.248035   1669.544809     17.355839     48.166961
 9000.0  -2035.366728   1691.466830     17.509152     48.377596
 9050.0  -2050.432875   1713.519538     17.662847     48.587371
 9100.0  -2065.444948   1735.702271     17.816915     48.796285
 9150.0  -2080.401419   1758.014371     17.971352     49.004336
 9200.0  -2095.300760   1780.455179     18.126150     49.211522
 9250.0  -2110.141444   1803.024035     18.281304     49.417843
 9300.0  -2124.921942   1825.720279     18.436808     49.623296
 9350.0  -2139.640726   1848.543252     18.592654     49.827879
 9400.0  -2154.296268   1871.492295     18.748837     50.031592
 9450.0  -2168.887042   1894.566748     18.905351     50.234432
 9500.0  -2183.411517   1917.765951     19.062190     50.436399
 9550.0  -2197.868167   1941.089245     19.219346     50.637489
 9600.0  -2212.255464   1964.535971     19.376814     50.837702
 9650.0  -2226.571880   1988.105468     19.534588     51.037036
 9700.0  -2240.815886   2011.797078     19.692661     51.235490
 9750.0  -2254.985956   2035.610141     19.851027     51.433062
 9800.0  -2269.080560   2059.543998     20.009680     51.629750
 9850.0  -2283.098171   2083.597989     20.168614     51.825553
 9900.0  -2297.037261   2107.771454     20.327822     52.020468
 9950.0  -2310.896302   2132.063734     20.487299     52.214496
10000.0  -2324.673766   2156.474170     20.647037     52.407633
10050.0  -2338.368126   2181.002102     20.807030     52.599878
10100.0  -2351.977853   2205.646871     20.967274     52.791230
10150.0  -2365.501419   2230.407816     21.127760     52.981688
10200.0  -2378.937296   2255.284280     21.288483     53.171248
10250.0  -2392.283957   2280.275601     21.449437     53.359911
10300.0  -2405.539873   2305.381121     21.610615     53.547673
10350.0  -2418.703517   2330.600180     21.772012     53.734535
10400.0  -2431.773361   2355.932119     21.933620     53.920493
10450.0  -2444.747876   2381.376277     22.095434     54.105547
10500.0  -2457.625534   2406.931997     22.257447     54.289695
10550.0  -2470.404809   2432.598618     22.419654     54.472935
10600.0  -2483.084171   2458.375480     22.582047     54.655265
10650.0  -2495.662094   2484.261924     22.744621     54.836685
10700.0  -2508.137048   2510.257292     22.907370     55.017192
10750.0  -2520.507506   2536.360922     23.070287     55.196785
10800.0  -2532.771941   2562.572156     23.233365     55.375462
10850.0  -2544.928823   2588.890334     23.396600     55.553222
10900.0  -2556.976626   2615.314797     23.559983     55.730063
10950.0  -2568.913821   2641.844885     23.723510     55.905983
11000.0  -2580.738880   2668.479939     23.887174     56.080981
11050.0  -2592.450275   2695.219299     24.050969     56.255055
11100.0  -2604.046479   2722.062306     24.214888     56.428204
11150.0  -2615.525964   2749.008301     24.378925     56.600425
11200.0  -2626.887201   2776.056622     24.543074     56.771718
11250.0  -2638.128662   2803.206613     24.707329     56.942081
11300.0  -2649.248820   2830.457612     24.871684     57.111512
11350.0  -2660.246147   2857.808960     25.036131     57.280010
11400.0  -2671.119115   2885.259998     25.200666     57.447573
11450.0  -2681.866195   2912.810066     25.365281     57.614199
11500.0  -2692.485861   2940.458506     25.529971     57.779887
11550.0  -2702.976583   2968.204656     25.694729     57.944634
11600.0  -2713.336834   2996.047858     25.859549     58.108441
11650.0  -2723.565087   3023.987453     26.024424     58.271304
11700.0  -2733.659812   3052.022781     26.189350     58.433223
11750.0  -2743.619483   3080.153182     26.354318     58.594196
11800.0  -2753.442571   3108.377996     26.519323     58.754220
11850.0  -2763.127548   3136.696565     26.684360     58.913296
11900.0  -2772.672887   3165.108229     26.849420     59.071420
11950.0  -2782.077059   3193.612329     27.014499     59.228591
12000.0  -2791.338536   3222.208204     27.179590     59.384809
12050.0  -2800.455791   3250.895196     27.344687     59.540070
12100.0  -2809.427296   3279.672645     27.509783     59.694374
12150.0  -2818.251522   3308.539891     27.674872     59.847718
12200.0  -2826.926942   3337.496275     27.839949     60.000103
12250.0  -2835.452028   3366.541137     28.005006     60.151524
12300.0  -2843.825251   3395.673818     28.170038     60.301982
12350.0  -2852.045085   3424.893659     28.335038     60.451475
12400.0  -2860.110000   3454.200000     28.500000     60.600000
