#Lambda        Dielectric Constant          Refractive Index
# [nm]        [Real]        [Imag]        [Real]        [Imag]
   41.3      0.203856      0.080960      0.460000      0.088000
   42.8      0.204000      0.122200      0.470000      0.130000
   44.3      0.201500      0.163200      0.480000      0.170000
   45.9      0.194300      0.182400      0.480000      0.190000
   47.7      0.210000      0.200000      0.500000      0.200000
   49.6      0.217500      0.239200      0.520000      0.230000
   51.7      0.229100      0.270000      0.540000      0.250000
   53.9      0.224000      0.280800      0.540000      0.260000
   56.4      0.229500      0.324800      0.560000      0.290000
   59.0      0.193600      0.363000      0.550000      0.330000
   62.0      0.105600      0.380000      0.500000      0.380000
   65.3      0.100100      0.408000      0.510000      0.400000
   68.9      0.102300      0.426400      0.520000      0.410000
   72.9      0.102000      0.515200      0.560000      0.460000
   77.5      0.107100      0.704000      0.640000      0.550000
   82.7     -0.105600      0.868000      0.620000      0.700000
   85.5     -0.193200      0.942400      0.620000      0.760000
   88.6     -0.408800      1.026600      0.590000      0.870000
   91.8     -0.492800      1.134600      0.610000      0.930000
   95.4     -0.407500      1.297200      0.690000      0.940000
   99.2      0.000000      1.445000      0.850000      0.850000
  103.3      0.000000      1.513800      0.870000      0.870000
  107.8     -0.104400      1.512000      0.840000      0.900000
  112.7     -0.314500      1.696800      0.840000      1.010000
  118.1      0.000000      1.920800      0.980000      0.980000
  124.0     -0.101500      2.059200      0.990000      1.040000
  130.5     -0.518400      2.304000      0.960000      1.200000
  137.8     -0.305500      2.752800      1.110000      1.240000
  141.7      4.398900      4.982000      2.350000      1.060000
  145.9      4.712100      4.780000      2.390000      1.000000
  150.3      5.080900      4.704000      2.450000      0.960000
  155.0      5.880000      4.713800      2.590000      0.910000
  160.0      6.219200      4.019400      2.610000      0.770000
  165.3      6.283900      3.588000      2.600000      0.690000
  171.0      6.302400      2.827000      2.570000      0.550000
  177.1      5.990400      1.984000      2.480000      0.400000
  183.7      5.420100      1.504000      2.350000      0.320000
  190.7      4.693700      1.401600      2.190000      0.320000
  198.4      4.032000      1.468800      2.040000      0.360000
  206.6      3.611500      1.513200      1.940000      0.390000
  215.6      3.091500      1.710800      1.820000      0.470000
  225.4      2.767500      1.774800      1.740000      0.510000
  236.2      2.052000      2.194200      1.590000      0.690000
  248.0      1.488500      2.410800      1.470000      0.820000
  261.0      0.912000      2.807800      1.390000      1.010000
  275.5      0.000000      3.276800      1.280000      1.280000
  291.7     -1.109600      4.191000      1.270000      1.650000
  310.0     -2.297700      5.306400      1.320000      2.010000
  330.6     -3.366900      7.110000      1.500000      2.370000
  354.2     -4.331600      9.288000      1.720000      2.700000
  381.5     -5.100500     12.241200      2.020000      3.030000
  404.0     -5.207200     15.594600      2.370000      3.290000
  413.3     -5.192000     17.017800      2.510000      3.390000
  416.7     -4.938500     17.356800      2.560000      3.390000
  430.1     -4.368000     19.223800      2.770000      3.470000
  442.8     -3.996000     21.997800      3.030000      3.630000
  459.8     -2.702700     23.936400      3.270000      3.660000
  476.2     -1.235900     26.412000      3.550000      3.720000
  476.9     -1.317600     26.775000      3.570000      3.750000
  489.2      0.000000     28.275200      3.760000      3.760000
  498.5      1.075200     29.481400      3.910000      3.770000
  507.9      2.352000     30.687800      4.070000      3.770000
  516.6      3.764700     31.969600      4.240000      3.770000
  517.9      3.774100     32.130000      4.250000      3.780000
  528.0      5.487300     33.313600      4.430000      3.760000
  538.8      7.728300     34.095600      4.620000      3.690000
  549.8      9.959200     34.920600      4.810000      3.630000
  561.2     12.355200     35.771400      5.010000      3.570000
  563.6     12.977900     36.822000      5.100000      3.610000
  573.4     15.277200     37.030400      5.260000      3.520000
  585.8     18.783200     37.002600      5.490000      3.370000
  599.2     22.163300     35.834400      5.670000      3.160000
  612.7     25.228800     34.221600      5.820000      2.940000
  627.4     28.350900     32.238000      5.970000      2.700000
  642.3     30.842400     29.743000      6.070000      2.450000
  658.3     32.269600     27.495000      6.110000      2.250000
  674.8     33.374000     24.724800      6.120000      2.020000
  688.8     33.970000     21.960000      6.100000      1.800000
  692.5     34.129700     20.949600      6.090000      1.720000
  710.7     34.171200     18.361600      6.040000      1.520000
  730.5     33.552900     16.184000      5.950000      1.360000
  750.8     32.869300     14.792400      5.870000      1.260000
  772.8     32.970700     13.712400      5.860000      1.170000
  774.9     33.251900     13.524000      5.880000      1.150000
  796.2     32.982000     12.380800      5.840000      1.060000
  820.3     32.607375     10.346200      5.780000      0.895000
  846.7     31.684800      8.633600      5.680000      0.760000
  874.1     30.813819      7.367620      5.590000      0.659000
  885.6     30.516700      7.005600      5.560000      0.630000
  953.7     28.438000      5.788800      5.360000      0.540000
 1033.0     26.332000      6.514200      5.170000      0.630000
 1127.0     27.946500      7.248800      5.330000      0.680000
 1240.0     28.420000      4.815000      5.350000      0.450000
 1378.0     27.200000      2.296800      5.220000      0.220000
 1550.0     25.993100      1.326000      5.100000      0.130000
 1771.0     24.490400      1.089000      4.950000      0.110000
 2066.0     24.304900      0.000000      4.930000      0.000000
 2480.0     24.010000      0.000000      4.900000      0.000000
 4000.0     24.295041      0.000313      4.929000      0.000032
 5000.0     23.658496      0.000213      4.864000      0.000022
 6000.0     23.406244      0.000000      4.838000      0.000000
 7000.0     23.242041      0.000000      4.821000      0.000000
 8000.0     23.126481      0.000000      4.809000      0.000000
10000.0     23.001616      0.000305      4.796000      0.000032
12000.0     22.934521      0.000000      4.789000      0.000000
13330.0     22.848400      0.000000      4.780000      0.000000
14000.0     22.896225      0.000000      4.785000      0.000000
20000.0     22.752900      0.001107      4.770000      0.000116
25000.0     22.562500      0.003401      4.750000      0.000358
28570.0     22.467598      0.013367      4.740000      0.001410
33330.0     22.184093      0.024963      4.710000      0.002650
40000.0     21.808897      0.016438      4.670000      0.001760
50000.0     20.976381      0.039938      4.580000      0.004360
66670.0     17.638711      0.301560      4.200000      0.035900
69440.0     15.331056      1.473920      3.920000      0.188000
70420.0     14.519924      5.232240      3.870000      0.676000
70870.0     17.727871      7.507800      4.300000      0.873000
71430.0     21.187899      4.620740      4.630000      0.499000
72460.0     20.046064      1.397760      4.480000      0.156000
76920.0     16.807138      0.438700      4.100000      0.053500
83330.0     13.314508      0.652620      3.650000      0.089400
86960.0     10.737375      0.951200      3.280000      0.145000
90900.0      6.723296      1.555560      2.610000      0.298000
95240.0     -0.344400      3.016000      1.160000      1.300000
